Raman_Shift,Intensity
cm^-^1,a.u.
50.3599,281.15
50.8853,279.856
51.4128,284.962
51.9402,289.518
52.4655,296.774
52.9929,300.38
53.5203,308.236
54.0455,312.491
54.5728,327.697
55.0979,337.453
55.6251,352.359
56.1524,370.315
56.6774,383.221
57.2046,410.827
57.7296,424.683
58.2567,457.589
58.7837,480.895
59.3086,502.55
59.8356,515.806
60.3605,527.362
60.8874,542.068
61.4144,561.474
61.9391,577.33
62.466,598.186
62.9907,611.642
63.5175,627.348
64.0421,647.254
64.5688,668.16
65.0934,682.366
65.6201,706.171
66.1446,737.127
66.6712,744.883
67.1957,777.089
67.7223,787.595
68.2467,812.251
68.7732,820.007
69.2975,867.163
69.824,890.369
70.3483,942.475
70.8746,1022.03
71.3989,1121.64
71.9252,1290.74
72.4494,1469.8
72.9756,1581.6
73.4997,1518.86
74.0238,1421.82
74.55,1335.07
75.074,1329.58
75.6001,1436.53
76.1241,1601.54
76.6502,1741.7
77.1741,1722.55
77.6979,1549.01
78.2239,1339.51
78.7477,1182.17
79.2736,1067.73
79.7974,1025.18
80.3211,991.287
80.8469,978.293
81.3706,975.049
81.8942,987.555
82.42,994.861
82.9436,987.616
83.4671,996.572
83.9927,1015.58
84.5162,1046.48
85.0397,1103.04
85.5653,1179.75
86.0887,1302.2
86.612,1491.51
87.1375,1738.46
87.6608,2006.47
88.1841,2140.68
88.7095,2090.38
89.2327,1889.19
89.7559,1644.79
90.2812,1421.55
90.8043,1282.61
91.3274,1166.66
91.8505,1094.82
92.3757,1065.97
92.8987,1046.63
93.4217,1033.73
93.9447,1031.39
94.4697,1016.45
94.9926,1022.8
95.5155,1038.01
96.0383,1071.11
96.5612,1116.72
97.0861,1160.83
97.6088,1200.28
98.1316,1191.89
98.6543,1158.34
99.1769,1105.05
99.7017,1047.21
100.224,1016.16
100.747,988.668
101.269,962.173
101.792,950.829
102.314,946.835
102.839,939.641
103.361,938.147
103.884,938.903
104.406,927.509
104.929,942.415
105.451,936.871
105.973,946.977
106.498,946.083
107.02,949.589
107.542,933.844
108.064,936.1
108.586,933.706
109.108,937.862
109.631,938.418
110.153,940.874
110.675,950.43
111.197,942.636
111.719,952.042
112.241,956.148
112.765,968.554
113.286,975.21
113.808,976.315
114.33,984.071
114.852,990.127
115.374,999.983
115.895,1007.09
116.417,1016.95
116.939,1026.95
117.46,1029.11
117.982,1042.36
118.504,1050.12
119.025,1077.32
119.547,1096.78
120.068,1106.74
120.59,1133.49
121.111,1144.5
121.633,1170.1
122.154,1210.96
122.675,1247.02
123.197,1268.07
123.716,1310.08
124.237,1350.28
124.758,1394.44
125.279,1467.95
125.801,1532.6
126.322,1617.71
126.843,1710.46
127.364,1834.57
127.885,1976.38
128.406,2134.58
128.927,2318.39
129.448,2551.19
129.967,2829.25
130.488,3137.5
131.009,3533.96
131.53,3938.17
132.05,4417.82
132.571,4834.13
133.092,5262.43
133.611,5509.89
134.131,5608.7
134.652,5508
135.173,5233.16
135.693,4842.36
136.214,4404.37
136.732,3951.38
137.253,3565.23
137.773,3230.84
138.294,2955.94
138.814,2778.65
139.333,2624.56
139.853,2529.76
140.373,2484.27
140.894,2464.07
141.412,2454.23
141.932,2484.18
142.452,2494.89
142.973,2561.85
143.491,2622.85
144.011,2679.76
144.531,2752.81
145.051,2846.72
145.569,2929.73
146.089,3056.98
146.609,3212.29
147.129,3422.69
147.647,3675.9
148.167,4013.86
148.687,4411.16
149.205,4893.22
149.724,5392.27
150.244,5949.53
150.762,6377.74
151.282,6685.49
151.801,6782
152.319,6645
152.839,6329.16
153.358,5939.06
153.876,5503.62
154.395,5108.23
154.915,4836.83
155.432,4654.59
155.952,4590.19
156.469,4553.3
156.989,4553.31
157.508,4451.51
158.025,4339.07
158.545,4142.87
159.062,3850.83
159.581,3512.39
160.1,3155.89
160.617,2802.85
161.137,2504.45
161.654,2265.91
162.173,2040.32
162.69,1857.37
163.209,1713.33
163.726,1608.68
164.245,1513.84
164.762,1431.29
165.281,1369.35
165.8,1315.31
166.317,1271.66
166.835,1235.22
167.352,1191.57
167.871,1167.78
168.388,1139.54
168.907,1109.24
169.423,1098.7
169.94,1075.2
170.458,1062.71
170.975,1056.02
171.494,1036.37
172.01,1025.98
172.529,1034.18
173.045,1028.79
173.564,1033.8
174.08,1038.95
174.598,1047.41
175.115,1064.26
175.631,1081.42
176.149,1112.62
176.666,1146.43
177.184,1185.39
177.7,1214.49
178.216,1216.3
178.734,1227.55
179.251,1207.41
179.767,1166.92
180.285,1130.72
180.801,1092.23
181.319,1051.18
181.835,1025.54
182.351,1008.05
182.869,986.702
183.385,973.658
183.9,956.814
184.418,949.719
184.934,936.525
185.45,938.881
185.968,929.437
186.483,929.393
186.999,928.799
187.515,923.805
188.032,924.011
188.548,916.967
189.063,925.573
189.581,929.629
190.097,935.384
190.612,940.74
191.127,944.646
191.645,952.752
192.16,962.908
192.676,974.614
193.191,979.77
193.708,990.526
194.224,995.482
194.739,991.588
195.254,981.594
195.769,979.45
196.286,959.805
196.802,961.011
197.317,947.017
197.832,951.473
198.347,938.429
198.864,944.035
199.379,938.391
199.894,932.047
200.409,926.353
200.924,924.059
201.438,922.465
201.955,916.07
202.47,918.726
202.985,917.732
203.5,910.088
204.014,921.494
204.529,921.55
205.044,925.606
205.558,927.562
206.075,932.868
206.59,935.224
207.104,945.18
207.619,950.885
208.133,961.541
208.648,973.847
209.162,993.453
209.676,1011.41
210.191,1021.96
210.705,1058.92
211.219,1083.28
211.734,1113.53
212.248,1149.24
212.762,1194.44
213.276,1224.05
213.791,1258.01
214.305,1307.91
214.819,1352.52
215.333,1379.97
215.847,1420.63
216.361,1419.94
216.875,1433.09
217.389,1441.95
217.903,1447.35
218.417,1451.81
218.931,1464.47
219.445,1483.42
219.958,1499.23
220.472,1531.13
220.986,1572.19
221.5,1611.95
222.013,1629.05
222.527,1675.01
223.041,1687.96
223.554,1704.77
224.068,1692.92
224.582,1674.83
225.095,1656.49
225.607,1597.99
226.12,1553
226.633,1518.85
227.147,1472.86
227.66,1421.02
228.174,1381.07
228.687,1327.93
229.2,1293.83
229.712,1251.24
230.225,1221.9
230.738,1193.2
231.251,1165.11
231.764,1148.66
232.278,1127.82
232.789,1102.88
233.302,1082.23
233.815,1076.89
234.328,1054.74
234.841,1041.05
235.352,1039.6
235.865,1022.91
236.378,1011.82
236.89,997.772
237.403,991.478
237.914,982.434
238.427,972.04
238.94,962.846
239.452,961.202
239.963,955.508
240.476,941.364
240.988,936.92
241.501,936.376
242.011,932.682
242.524,924.938
243.037,920.194
243.547,912.899
244.06,920.055
244.572,919.961
245.084,909.517
245.595,914.073
246.107,898.729
246.619,884.985
247.13,906.041
247.642,897.297
248.154,898.803
248.664,899.258
249.177,884.214
249.689,891.07
250.199,889.626
250.711,872.982
251.221,880.788
251.733,878.344
252.245,877.75
252.755,880.306
253.267,879.862
253.777,878.668
254.289,876.924
254.801,875.229
255.311,875.735
255.822,876.841
256.332,872.897
256.844,884.403
257.356,873.409
257.865,868.215
258.377,875.471
258.887,874.977
259.398,869.783
259.908,878.189
260.419,881.745
260.929,869.15
261.44,878.106
261.95,866.312
262.461,877.518
262.971,876.424
263.482,879.23
263.991,863.436
264.503,875.192
265.012,881.148
265.523,870.954
266.032,874.61
266.544,871.465
267.053,872.371
267.564,878.127
268.073,870.783
268.582,873.939
269.093,878.645
269.602,870.201
270.113,863.907
270.622,870.513
271.133,866.869
271.642,868.075
272.151,858.031
272.662,875.236
273.171,873.742
273.682,870.898
274.19,873.154
274.699,876.56
275.21,877.966
275.718,871.472
276.227,879.128
276.738,877.884
277.246,879.44
277.757,873.896
278.265,879.801
278.774,873.757
279.285,885.313
279.793,880.319
280.301,870.925
280.81,873.231
281.32,866.587
281.828,876.893
282.337,873.599
282.847,877.255
283.355,881.311
283.864,874.117
284.372,872.672
284.882,877.078
285.39,878.934
285.898,869.79
286.408,878.896
286.916,868.002
287.424,876.108
287.932,873.964
288.44,871.32
288.95,880.576
289.458,870.481
289.966,880.537
290.474,871.943
290.984,873.149
291.492,880.355
291.999,875.511
292.507,877.967
293.015,888.673
293.523,880.129
294.032,877.035
294.54,876.241
295.048,875.997
295.555,877.152
296.063,872.158
296.57,878.814
297.08,874.22
297.587,871.126
298.095,875.532
298.602,871.588
299.109,868.794
299.617,871.1
300.124,869.606
300.631,862.212
301.139,871.367
301.646,866.023
302.155,878.129
302.662,870.485
303.169,875.791
303.677,866.147
304.184,876.253
304.691,871.559
305.198,868.865
305.705,869.621
306.212,868.027
306.719,871.182
307.226,863.088
307.733,871.694
308.239,870.7
308.746,871.456
309.253,868.462
309.76,866.118
310.267,872.174
310.773,863.43
311.28,874.386
311.787,861.942
312.293,865.247
312.8,870.953
313.307,861.259
313.813,871.565
314.32,866.571
314.826,874.227
315.333,863.533
315.839,866.439
316.346,879.595
316.85,871.301
317.356,870.707
317.863,871.913
318.369,868.569
318.875,868.524
319.381,877.38
319.888,875.536
320.394,877.492
320.9,870.298
321.406,878.004
321.91,873.86
322.416,869.616
322.922,875.172
323.428,878.478
323.934,872.484
324.44,870.889
324.944,876.145
325.45,879.501
325.956,870.957
326.462,879.963
326.968,882.969
327.474,875.625
327.977,872.631
328.483,876.787
328.989,879.843
329.495,882.549
329.998,875.654
330.504,879.11
331.009,869.516
331.515,880.872
332.021,883.228
332.524,880.834
333.03,886.49
333.535,885.246
334.038,887.802
334.544,891.708
335.049,896.164
335.555,888.17
336.058,881.475
336.563,885.631
337.069,896.087
337.572,887.543
338.077,890.399
338.582,893.555
339.085,887.411
339.59,891.217
340.096,897.773
340.599,894.429
341.104,892.335
341.609,886.14
342.112,894.696
342.617,893.952
343.122,901.558
343.624,899.564
344.129,894.82
344.634,900.676
345.137,904.282
345.642,898.988
346.145,898.394
346.649,896.7
347.154,905.106
347.657,897.611
348.161,902.467
348.664,906.923
349.169,896.379
349.671,904.135
350.176,899.091
350.68,907.197
351.183,908.203
351.687,906.859
352.19,891.165
352.694,905.42
353.196,900.727
353.701,910.282
354.203,902.838
354.707,903.194
355.209,906.8
355.714,909.556
356.216,909.012
356.72,898.318
357.222,907.224
357.726,907.83
358.228,905.886
358.733,908.441
359.235,917.197
359.737,904.053
360.241,897.409
360.742,905.115
361.246,906.971
361.748,906.527
362.252,902.333
362.754,906.189
363.256,907.595
363.76,906.951
364.261,910.206
364.765,903.563
365.267,915.618
365.768,903.524
366.272,912.98
366.774,910.436
367.275,915.242
367.779,913.448
368.28,905.504
368.784,897.26
369.285,900.966
369.787,908.072
370.29,911.427
370.792,900.633
371.293,906.589
371.794,903.895
372.298,906.051
372.799,914.007
373.3,904.213
373.804,915.569
374.305,896.825
374.806,901.981
375.307,897.037
375.81,910.743
376.311,909.198
376.812,905.454
377.315,901.91
377.816,906.966
378.317,900.022
378.818,905.278
379.319,903.984
379.822,911.64
380.323,905.696
380.824,910.202
381.325,907.858
381.828,914.014
382.328,902.669
382.829,898.725
383.33,900.031
383.83,907.487
384.331,909.493
384.834,906.449
385.334,906.905
385.835,915.911
386.335,911.917
386.836,906.423
387.336,914.228
387.839,911.134
388.339,913.19
388.84,918.696
389.34,917.052
389.84,912.008
390.341,908.864
390.841,915.97
391.341,910.126
391.841,921.432
392.342,923.738
392.844,914.244
393.344,919.049
393.844,925.705
394.344,926.711
394.844,924.067
395.344,924.423
395.844,917.079
396.344,920.585
396.844,920.841
397.344,923.397
397.844,919.103
398.344,922.858
398.844,928.265
399.344,918.77
399.843,923.576
400.343,913.332
400.843,922.888
401.343,922.294
401.842,920.85
402.342,925.656
402.842,916.212
403.341,923.918
403.841,921.574
404.34,926.58
404.84,922.335
405.339,920.791
405.839,918.397
406.336,913.803
406.836,916.259
407.335,917.315
407.834,917.421
408.334,921.477
408.833,917.233
409.332,921.289
409.832,920.795
410.331,922.95
410.83,919.006
411.327,931.762
411.826,923.218
412.325,918.624
412.824,919.38
413.324,923.786
413.823,917.042
414.32,924.248
414.819,917.004
415.317,934.41
415.816,920.016
416.315,919.922
416.814,923.277
417.311,920.883
417.81,916.339
418.309,918.345
418.807,919.501
419.304,921.882
419.803,924.263
420.301,920.969
420.8,930.775
421.299,914.481
421.795,930.687
422.294,927.592
422.792,927.598
423.289,930.454
423.787,930.01
424.286,930.666
424.784,925.872
425.281,921.228
425.779,923.334
426.277,928.19
426.774,925.596
427.272,932.401
427.77,929.457
428.266,934.813
428.765,932.269
429.263,924.375
429.759,929.631
430.257,934.537
430.755,928.993
431.251,928.999
431.749,929.755
432.247,929.561
432.743,930.266
433.241,923.972
433.737,931.328
434.235,936.084
434.733,925.64
435.229,931.196
435.727,934.602
436.222,936.508
436.72,933.164
437.218,936.57
437.714,933.326
438.211,939.582
438.707,934.737
439.205,937.293
439.7,931.849
440.198,927.255
440.693,939.261
441.191,934.217
441.686,928.773
442.184,934.279
442.681,936.785
443.177,930.291
443.674,927.947
444.169,926.352
444.665,936.508
445.162,929.864
445.657,931.12
446.155,919.626
446.65,928.882
447.147,924.138
447.642,933.394
448.139,929.6
448.634,926.756
449.132,939.062
449.627,929.918
450.122,934.473
450.619,927.129
451.114,936.285
451.611,929.241
452.105,933.297
452.6,941.553
453.097,932.109
453.592,928.815
454.089,930.171
454.584,926.277
455.078,924.082
455.575,922.289
456.07,921.394
456.565,924.75
457.061,931.956
457.556,924.312
458.05,914.818
458.547,918.924
459.042,925.43
459.536,925.586
460.033,927.992
460.527,925.398
461.022,929.304
461.518,925.609
462.012,930.765
462.507,921.271
463.001,925.177
463.497,924.283
463.992,919.689
464.486,925.995
464.98,919.251
465.476,920.857
465.97,920.413
466.465,920.019
466.959,917.424
467.455,913.28
467.949,929.386
468.443,923.842
468.937,915.998
469.431,923.254
469.927,920.11
470.421,922.566
470.915,920.272
471.409,927.728
471.902,920.384
472.396,926.289
472.892,917.045
473.386,925.901
473.879,924.507
474.373,923.313
474.867,916.369
475.361,922.825
475.854,917.131
476.35,918.387
476.843,910.393
477.337,929.249
477.83,915.155
478.324,918.06
478.817,926.366
479.311,928.472
479.804,916.628
480.298,919.484
480.791,926.49
481.284,924.746
481.778,927.602
482.273,930.308
482.766,933.114
483.259,923.82
483.753,925.026
484.246,922.581
484.739,922.187
485.232,922.243
485.725,922.499
486.218,925.755
486.711,928.361
487.204,927.467
487.697,929.023
488.19,928.779
488.683,924.735
489.176,934.941
489.669,927.596
490.162,930.302
490.653,927.258
491.145,936.314
491.638,930.32
492.131,942.326
492.624,940.782
493.116,932.838
493.609,938.694
494.102,936.5
494.594,935.306
495.087,948.811
495.579,929.017
496.072,940.323
496.562,946.379
497.055,942.185
497.547,945.791
498.04,941.797
498.532,938.303
499.025,943.559
499.517,945.815
500.007,949.221
500.499,951.527
500.992,957.932
501.484,948.588
501.976,945.394
502.466,953.4
502.958,949.506
503.451,959.162
503.943,958.618
504.435,958.274
504.925,953.73
505.417,955.786
505.909,955.242
506.401,956.397
506.893,958.253
507.383,963.359
507.875,967.915
508.366,966.321
508.856,971.127
509.348,964.233
509.84,962.989
510.332,967.245
510.821,970.851
511.313,967.957
511.805,976.762
512.294,956.468
512.786,972.724
513.278,972.68
513.769,962.236
514.259,964.692
514.75,974.598
515.242,965.904
515.731,980.71
516.223,975.666
516.712,975.469
517.203,973.977
517.695,966.945
518.184,966.685
518.675,964.852
519.167,964.932
519.656,961.199
520.147,959.638
520.636,954.064
521.128,958.726
521.619,961.42
522.108,963.622
522.599,953.559
523.088,950.228
523.579,951.919
524.068,951.194
524.559,955.738
525.048,943.384
525.539,942.295
526.03,942.254
526.519,940.799
527.01,938.245
527.498,940.239
527.989,933.147
528.478,933.692
528.969,937.084
529.457,930.32
529.948,928.738
530.437,931.329
530.927,930.567
531.416,931.389
531.905,931.963
532.395,924.038
532.884,923.992
533.374,922.178
533.863,917.113
534.353,924.428
534.842,921.779
535.33,919.096
535.82,913.257
536.309,916.874
536.799,912.052
537.287,911.372
537.776,907.52
538.266,904.169
538.754,902.675
539.244,904.334
539.732,902.715
540.221,900.992
540.711,899.503
541.199,896.578
541.687,896.714
542.177,896.458
542.665,894.797
543.153,893.922
543.643,887.585
544.131,889.385
544.619,888.92
545.109,889.043
545.596,892.692
546.084,885.106
546.572,885.379
547.062,880.002
547.549,878.961
548.037,874.453
548.527,874.464
549.015,878.556
549.502,876.002
549.99,873.402
550.479,867.243
550.967,864.868
551.455,866.989
551.942,867.168
552.43,859.684
552.919,861.798
553.406,857.713
553.894,856.208
554.381,866.48
554.868,860.941
555.358,853.363
555.845,851.836
556.332,854.249
556.82,855.205
557.307,846.173
557.794,846.724
558.283,845.174
558.77,843.73
559.258,847.21
559.745,847.207
560.232,844.268
560.719,841.943
561.206,836.417
561.693,833.605
562.18,832.54
562.669,832.641
563.155,832.549
563.642,828.519
564.129,831.443
564.616,832.422
565.103,827.162
565.194,825.479
565.685,822.656
566.178,826.184
566.671,827.412
567.163,820.039
567.656,820.767
568.147,833.294
568.639,825.672
569.132,828.65
569.625,817.727
570.115,817.255
570.608,818.483
571.1,831.41
571.593,830.638
572.083,829.516
572.576,827.543
573.068,822.871
573.561,830.948
574.051,827.376
574.544,830.904
575.036,826.931
575.526,816.409
576.018,825.587
576.511,825.514
577.003,827.942
577.493,822.519
577.985,823.797
578.478,820.275
578.968,830.252
579.46,826.43
579.952,825.758
580.442,824.185
580.934,823.963
581.424,821.69
581.916,820.168
582.408,829.696
582.898,820.523
583.39,825.301
583.881,831.529
584.371,831.806
584.863,828.134
585.353,830.211
585.845,816.689
586.334,828.217
586.826,825.794
587.318,822.872
587.807,824.799
588.299,825.677
588.789,826.605
589.28,823.332
589.77,822.61
590.261,829.438
590.751,828.615
591.242,833.693
591.734,832.871
592.223,837.648
592.714,833.426
593.204,825.304
593.695,821.981
594.184,826.559
594.676,833.686
595.165,833.814
595.656,828.842
596.145,830.019
596.634,838.197
597.126,830.525
597.615,827.952
598.106,825.88
598.595,826.207
599.086,826.485
599.575,822.663
600.066,829.74
600.555,827.968
601.044,823.796
601.535,828.973
602.023,828.051
602.514,832.628
603.003,836.806
603.492,837.184
603.983,832.261
604.471,834.489
604.962,835.867
605.451,834.944
605.94,838.872
606.43,829.75
606.919,833.977
607.407,835.455
607.898,831.432
608.386,839.16
608.875,834.038
609.365,825.065
609.854,834.943
610.342,836.97
610.833,840.348
611.321,838.626
611.809,831.654
612.3,842.831
612.788,840.309
613.276,840.336
613.767,835.714
614.255,831.642
614.743,823.019
615.231,838.147
615.721,838.574
616.209,837.552
616.698,842.58
617.186,836.407
617.676,834.635
618.164,837.663
618.652,833.84
619.14,842.718
619.627,838.245
620.117,835.423
620.605,835.501
621.093,831.578
621.581,836.406
622.069,836.734
622.558,835.761
623.046,835.589
623.534,842.016
624.022,837.944
624.509,844.022
624.997,845.449
625.487,842.477
625.974,841.355
626.462,840.082
626.949,837.66
627.437,833.538
627.924,840.315
628.412,836.593
628.901,842.67
629.388,842.498
629.876,849.176
630.363,833.503
630.85,844.881
631.338,839.759
631.825,842.336
632.312,843.564
632.799,853.542
633.287,841.219
633.774,844.747
634.261,841.474
634.748,840.052
635.237,856.23
635.724,843.457
636.211,844.985
636.698,848.262
637.185,846.94
637.672,842.568
638.159,841.195
638.646,844.723
639.133,839.251
639.62,847.378
640.107,842.806
640.593,846.884
641.08,847.261
641.567,847.439
642.054,849.367
642.54,846.294
643.025,842.722
643.512,837.249
643.998,835.427
644.485,837.105
644.971,841.632
645.458,841.66
645.944,839.188
646.431,833.865
646.917,840.593
647.404,835.32
647.89,839.298
648.377,839.376
648.863,841.103
649.347,835.881
649.834,832.558
650.32,836.836
650.806,836.464
651.292,831.841
651.779,838.619
652.265,838.697
652.749,833.974
653.235,839.752
653.721,835.63
654.207,837.457
654.693,841.935
655.179,837.912
655.663,839.69
656.149,832.168
656.635,836.545
657.121,844.973
657.607,835.401
658.091,837.228
658.577,834.256
659.062,835.383
659.548,828.761
660.034,839.639
660.518,838.766
661.003,831.494
661.489,838.072
661.975,827.499
662.458,836.777
662.944,834.555
663.429,838.082
663.913,835.81
664.398,831.987
664.884,832.115
665.369,835.943
665.853,835.67
666.338,830.398
666.824,832.326
667.307,829.503
667.792,840.931
668.278,843.508
668.761,838.686
669.246,836.364
669.732,836.191
670.215,833.869
670.7,834.947
671.185,844.274
671.668,844.102
672.153,844.079
672.638,835.457
673.121,840.185
673.606,842.412
674.089,837.39
674.574,840.818
675.059,850.945
675.542,842.623
676.027,837.001
676.51,845.428
676.995,850.056
677.478,848.483
677.963,853.111
678.447,861.589
678.93,860.616
679.415,859.044
679.897,862.172
680.382,852.999
680.865,849.277
681.349,851.004
681.832,857.932
682.317,863.31
682.799,870.837
683.284,874.315
683.766,888.893
684.25,899.17
684.733,902.798
685.217,918.725
685.7,932.953
686.184,962.281
686.666,1010.51
687.151,1146.69
687.633,1340.81
688.117,1647.89
688.599,2001.52
689.082,2328.25
689.566,2547.47
690.048,2585.1
690.532,2411.63
691.014,2053.36
691.498,1675.78
691.98,1414.86
692.462,1278.64
692.946,1243.42
693.428,1219.6
693.91,1165.72
694.394,1102.45
694.876,1023.98
695.36,978.706
695.842,945.933
696.324,941.761
696.807,940.589
697.289,955.716
697.771,1010.89
698.255,1063.07
698.736,1148.6
699.218,1162.08
699.702,1118.65
700.183,1038.88
700.665,983.41
701.148,937.737
701.63,909.565
702.111,891.542
702.593,883.67
703.076,871.398
703.558,863.175
704.039,866.103
704.52,844.681
705.004,850.458
705.485,855.286
705.966,856.664
706.448,865.391
706.931,852.019
707.412,850.846
707.893,858.624
708.375,855.452
708.858,856.429
709.339,856.757
709.82,858.685
710.301,851.762
710.782,861.14
711.265,848.917
711.746,854.245
712.227,856.673
712.708,861.4
713.189,860.828
713.67,852.305
714.153,858.983
714.633,851.211
715.114,851.989
715.595,863.516
716.076,857.494
716.557,850.371
717.037,849.949
717.518,858.977
717.999,840.404
718.481,855.082
718.962,853.459
719.442,855.737
719.923,860.265
720.404,857.243
720.884,853.52
721.365,853.248
721.845,857.275
722.325,853.053
722.806,853.231
723.286,848.058
723.767,855.136
724.247,848.563
724.727,851.041
725.207,853.219
725.688,851.146
726.168,862.024
726.648,851.802
727.128,856.929
727.608,860.757
728.089,852.734
728.569,848.312
729.049,848.74
729.529,854.567
730.009,854.945
730.489,852.223
730.969,851.35
731.449,845.178
731.929,847.505
732.409,853.283
732.888,858.761
733.368,859.488
733.848,863.216
734.328,856.194
734.808,858.121
735.287,858.099
735.765,855.027
736.245,862.754
736.724,857.282
737.204,854.259
737.684,852.837
738.163,851.115
738.643,849.342
739.122,849.67
739.6,856.048
740.079,852.575
740.559,848.403
741.038,855.531
741.518,854.358
741.997,859.786
742.474,857.913
742.954,851.791
743.433,854.169
743.912,855.546
744.392,846.324
744.869,848.851
745.348,856.479
745.827,856.707
746.306,851.434
746.786,853.562
747.263,851.59
747.742,856.217
748.221,851.845
748.7,856.923
749.177,854.4
749.656,855.528
750.135,861.155
750.612,852.733
751.091,849.861
751.57,856.288
752.048,849.016
752.525,850.744
753.004,855.721
753.483,852.249
753.96,852.327
754.438,853.204
754.917,849.882
755.394,849.559
755.872,850.337
756.351,846.965
756.828,854.892
757.306,848.82
757.785,853.247
758.261,849.225
758.74,850.203
759.218,856.331
759.695,849.008
760.173,844.086
760.649,850.163
761.128,850.741
761.606,854.769
762.082,842.696
762.561,845.674
763.037,849.801
763.515,851.079
763.994,855.007
764.47,850.734
764.948,844.362
765.424,853.99
765.902,849.067
766.378,851.445
766.856,862.122
767.332,855.2
767.81,855.628
768.286,861.505
768.764,851.833
769.24,852.611
769.718,852.288
770.194,853.966
770.672,853.093
771.148,849.921
771.626,853.699
772.102,854.226
772.579,845.354
773.055,853.282
773.533,852.209
774.008,850.987
774.486,849.265
774.962,855.092
775.437,853.07
775.915,850.397
776.391,858.425
776.868,851.603
777.344,855.63
777.819,854.158
778.297,853.986
778.772,854.413
779.249,851.891
779.725,859.068
780.2,848.096
780.678,858.874
781.153,850.551
781.63,859.929
782.105,854.657
782.581,856.734
783.058,848.062
783.533,857.29
784.008,857.567
784.485,853.045
784.961,863.823
785.436,858.3
785.911,849.078
786.388,851.405
786.863,851.283
787.338,859.91
787.815,855.438
788.29,857.666
788.765,857.094
789.24,860.721
789.716,859.949
790.191,854.276
790.666,851.404
791.141,852.582
791.618,856.209
792.092,851.237
792.567,855.814
793.042,851.242
793.518,857.37
793.993,855.297
794.468,854.575
794.942,860.953
795.417,854.18
795.893,859.508
796.368,856.285
796.842,864.863
797.317,860.441
797.791,858.268
798.266,856.846
798.742,855.224
799.216,856.201
799.691,859.829
800.165,859.706
800.639,849.534
801.114,854.612
801.588,855.289
802.064,853.767
802.538,858.995
803.013,859.272
803.487,857.4
803.961,859.378
804.435,866.155
804.909,869.433
805.383,858.76
805.857,862.988
806.331,864.216
806.805,861.893
807.279,855.671
807.753,863.899
808.229,868.526
808.703,859.554
809.177,866.231
809.65,856.909
810.124,859.787
810.598,861.714
811.072,860.142
811.545,862.87
812.019,864.147
812.493,863.275
812.966,860.853
813.44,863.23
813.914,859.908
814.387,872.935
814.859,858.063
815.332,870.591
815.806,861.418
816.279,861.596
816.753,859.974
817.226,859.501
817.7,863.429
818.173,865.906
818.646,858.234
819.12,852.362
819.593,866.589
820.066,870.817
820.539,871.495
821.011,858.222
821.484,867.25
821.957,851.177
822.43,862.505
822.903,858.183
823.376,862.26
823.85,864.138
824.321,862.916
824.794,858.143
825.267,864.121
825.74,865.598
826.213,865.726
826.685,866.604
827.156,868.331
827.629,865.209
828.102,861.886
828.575,854.264
829.048,870.892
829.519,868.62
829.991,862.447
830.464,867.625
830.937,862.852
831.407,865.68
831.88,865.208
832.353,867.535
832.825,858.813
833.296,863.441
833.769,858.868
834.241,863.946
834.714,865.974
835.184,869.801
835.657,871.629
836.129,857.606
836.599,857.234
837.072,867.862
837.544,866.089
838.016,863.917
838.487,870.444
838.959,865.372
839.431,864.35
839.902,869.027
840.374,867.605
840.844,869.133
841.316,859.46
841.788,862.338
842.258,864.665
842.731,866.443
843.203,871.871
843.673,871.849
844.145,870.576
844.615,867.554
845.087,867.031
845.559,872.559
846.029,870.037
846.5,856.414
846.97,868.942
847.442,866.019
847.912,870.647
848.384,866.025
848.856,869.052
849.325,862.83
849.797,868.307
850.267,869.535
850.738,869.463
851.208,869.54
851.68,862.068
852.149,866.396
852.621,876.323
853.09,864.851
853.562,872.529
854.031,860.606
854.503,877.834
854.972,864.712
855.444,863.889
855.913,877.767
856.385,861.844
856.854,866.022
857.323,867.8
857.795,870.527
858.264,868.005
858.735,875.483
859.204,867.56
859.676,867.838
860.145,866.465
860.614,867.443
861.085,866.621
861.554,866.898
862.025,872.876
862.494,869.604
862.964,866.031
863.434,866.809
863.903,866.286
864.372,865.964
864.843,861.692
865.312,865.469
865.781,866.547
866.252,867.725
866.721,872.152
867.19,870.005
867.661,867.857
868.129,870.635
868.598,858.013
869.069,872.89
869.537,867.218
870.006,870.396
870.475,863.473
870.945,869.851
871.414,862.828
871.883,866.906
872.353,866.434
872.822,866.161
873.29,873.939
873.759,860.817
874.229,864.444
874.698,870.522
875.166,863.799
875.634,864.277
876.103,856.805
876.573,869.232
877.041,858.36
877.51,866.288
877.978,865.915
878.446,873.293
878.916,861.77
879.385,877.148
879.853,874.476
880.321,868.504
880.789,870.081
881.257,871.759
881.725,866.686
882.195,862.014
882.663,869.542
883.131,864.869
883.599,869.497
884.067,863.974
884.535,870.402
885.003,861.98
885.471,870.958
885.939,874.185
886.409,863.613
886.876,864.09
887.344,877.518
887.812,870.995
888.28,871.673
888.747,869.801
889.215,870.278
889.683,873.556
890.15,867.284
890.618,872.061
891.086,869.739
891.553,872.817
892.021,866.544
892.488,871.722
892.956,870.849
893.423,872.777
893.891,868.955
894.358,872.832
894.825,870.71
895.293,869.288
895.76,868.865
896.227,872.593
896.695,871.92
897.162,870.348
897.629,872.926
898.096,872.103
898.564,871.781
899.031,868.109
899.498,873.736
899.963,872.464
900.43,873.942
900.897,865.919
901.364,871.547
901.831,869.274
902.298,875.002
902.765,873.03
903.232,879.157
903.699,874.135
904.164,869.713
904.631,872.24
905.098,879.318
905.565,874.095
906.031,878.223
906.498,872.151
906.963,874.728
907.43,876.556
907.897,877.134
908.363,873.261
908.83,872.839
909.295,872.167
909.761,874.794
910.228,867.972
910.694,870.749
911.161,878.877
911.625,876.955
912.092,871.732
912.558,872.41
913.025,875.288
913.489,878.315
913.956,877.643
914.422,878.67
914.888,880.648
915.353,882.826
915.819,877.903
916.285,879.231
916.75,878.059
917.216,882.336
917.682,885.064
918.148,882.341
918.612,877.669
919.079,880.347
919.545,878.274
920.009,886.502
920.475,878.88
920.939,885.057
921.405,881.135
921.871,886.462
922.335,885.99
922.801,886.268
923.267,878.996
923.731,880.723
924.197,885.151
924.66,884.478
925.126,880.056
925.592,878.734
926.056,888.961
926.522,881.489
926.985,878.016
927.451,886.894
927.917,883.872
928.38,885.399
928.846,883.827
929.31,892.955
929.775,893.482
930.239,880.76
930.704,888.387
931.168,875.715
931.633,884.793
932.097,882.52
932.562,873.798
933.026,882.826
933.491,884.753
933.954,877.631
934.42,877.208
934.883,885.836
935.348,880.814
935.812,886.191
936.277,880.369
936.74,887.147
937.205,881.924
937.669,885.252
938.132,883.93
938.597,875.107
939.06,878.635
939.525,880.612
939.988,888.64
940.451,882.468
940.916,886.395
941.379,883.373
941.844,880.051
942.307,881.878
942.77,887.906
943.235,882.833
943.698,891.661
944.161,889.039
944.626,880.716
945.088,881.544
945.551,882.022
946.016,882.249
946.479,886.427
946.941,884.705
947.406,883.082
947.869,878.61
948.331,881.387
948.796,881.015
949.259,883.393
949.721,886.47
950.186,887.398
950.648,887.125
951.111,879.253
951.573,882.481
952.038,885.858
952.5,889.336
952.962,889.864
953.425,883.041
953.889,890.269
954.352,882.897
954.814,885.174
955.276,886.252
955.738,881.729
956.203,879.907
956.665,877.485
957.127,880.69
957.589,890.389
958.051,879.616
958.515,881.834
958.977,879.857
959.44,883.187
959.902,889.155
960.364,884.245
960.826,872.373
961.288,886.708
961.752,886.44
962.214,880.64
962.675,884.841
963.137,882.92
963.599,881.429
964.061,884.165
964.523,884.666
964.985,881.705
965.446,883.276
965.908,882.341
966.372,883.718
966.833,878.476
967.295,889.967
967.757,882.349
968.218,886.617
968.68,885.016
969.142,885.222
969.603,882.778
970.065,878.759
970.526,886.315
970.988,881.102
971.449,882.073
971.911,880.676
972.372,879.266
972.833,879.182
973.295,878.559
973.756,883.245
974.217,886.551
974.679,884.55
975.14,884.961
975.601,884.729
976.062,880.067
976.524,882.626
976.983,884.136
977.444,887.949
977.905,886.445
978.366,881.427
978.827,880.503
979.288,885.683
979.749,885.377
980.21,882.058
980.671,885.185
981.132,893.191
981.591,883.846
982.052,883.496
982.513,889.158
982.974,887.715
983.435,884.592
983.896,890.563
984.356,887.625
984.815,891.002
985.276,889.369
985.737,893.154
986.197,887.651
986.658,892.194
987.117,892.103
987.577,886.484
988.038,891.255
988.499,893.105
988.959,891.106
989.418,897.094
989.878,892.489
990.339,886.723
990.799,892.291
991.258,886.461
991.718,886.675
992.179,891.597
992.639,893.16
993.097,891.645
993.558,892.449
994.018,893.21
994.476,882.812
994.936,880.513
995.397,883.489
995.857,890.018
996.315,890.13
996.775,883.788
997.235,885.779
997.694,885.907
998.154,889.646
998.614,891.482
999.072,888.74
999.532,884.897
999.99,884.216
1000.45,884.912
1000.91,886.032
1001.37,883.581
1001.83,886.335
1002.29,884.845
1002.75,885.027
1003.21,884.792
1003.66,886.174
1004.12,886.934
1004.58,884.157
1004.75,882.666
1005.21,882.172
1005.68,883.978
1006.14,880.083
1006.6,877.539
1007.07,890.095
1007.53,884.584
1008,881.873
1008.46,891.512
1008.93,887.852
1009.39,881.141
1009.85,889.33
1010.32,886.169
1010.78,889.658
1011.24,888.047
1011.71,881.636
1012.17,886.525
1012.64,892.015
1013.1,888.854
1013.56,894.043
1014.03,889.382
1014.49,893.571
1014.95,882.61
1015.42,890.699
1015.88,889.188
1016.34,888.628
1016.81,890.567
1017.27,885.606
1017.74,893.995
1018.2,890.334
1018.66,882.223
1019.13,883.912
1019.59,894.151
1020.05,894.191
1020.51,890.08
1020.98,886.719
1021.44,887.408
1021.9,894.947
1022.37,891.636
1022.83,893.075
1023.29,893.714
1023.75,894.704
1024.22,894.043
1024.68,896.932
1025.14,890.721
1025.61,900.01
1026.07,902.999
1026.53,887.789
1026.99,894.228
1027.46,898.317
1027.92,886.006
1028.38,894.895
1028.85,896.984
1029.31,896.173
1029.77,893.962
1030.23,903.401
1030.69,901.741
1031.16,899.68
1031.62,912.269
1032.08,899.958
1032.54,905.647
1033.01,904.886
1033.47,905.775
1033.93,908.165
1034.39,908.204
1034.85,908.093
1035.32,915.382
1035.78,919.921
1036.24,931.96
1036.7,933.549
1037.16,974.488
1037.63,1001.83
1038.09,1000.37
1038.55,986.406
1039.01,959.795
1039.47,948.334
1039.93,924.373
1040.4,927.412
1040.86,913.201
1041.32,916.141
1041.78,923.83
1042.24,911.519
1042.7,918.308
1043.17,923.747
1043.63,918.036
1044.09,923.525
1044.55,924.564
1045.01,929.954
1045.47,927.043
1045.93,934.482
1046.4,946.121
1046.86,956.21
1047.32,952.149
1047.78,963.288
1048.24,963.577
1048.7,965.817
1049.16,968.256
1049.62,966.595
1050.08,980.284
1050.55,994.473
1051,1010.96
1051.47,1020.95
1051.93,1039.39
1052.39,1051.18
1052.85,1084.42
1053.31,1107.81
1053.77,1146.65
1054.23,1196.94
1054.69,1245.13
1055.15,1346.76
1055.61,1500.1
1056.07,1815.84
1056.53,2315.08
1056.99,3113.32
1057.45,4933.66
1057.91,8815.15
1058.37,14469.3
1058.84,19134.7
1059.29,18954
1059.75,14260.6
1060.22,8645.75
1060.68,4774.68
1061.13,2792.92
1061.6,1902.56
1062.06,1533.5
1062.51,1341.04
1062.98,1223.38
1063.44,1152.82
1063.89,1111.01
1064.35,1071.2
1064.82,1047.94
1065.27,1024.88
1065.73,1012.91
1066.19,996.704
1066.65,987.843
1067.11,973.482
1067.57,964.121
1068.03,963.91
1068.49,957.699
1068.95,953.188
1069.41,945.027
1069.87,943.317
1070.33,946.856
1070.79,937.195
1071.25,935.484
1071.71,929.123
1072.17,926.162
1072.63,928.401
1073.09,928.04
1073.54,927.43
1074,929.469
1074.46,930.958
1074.92,923.847
1075.38,924.186
1075.84,929.725
1076.3,922.964
1076.76,919.754
1077.22,918.443
1077.68,921.082
1078.14,927.921
1078.59,920.61
1079.05,918.499
1079.51,918.838
1079.97,920.527
1080.43,917.966
1080.89,915.506
1081.35,914.745
1081.8,909.784
1082.26,932.723
1082.72,909.662
1083.18,916.701
1083.64,908.34
1084.1,913.13
1084.56,916.319
1085.01,913.508
1085.47,911.147
1085.93,920.386
1086.39,916.075
1086.85,916.864
1087.3,904.553
1087.76,916.643
1088.22,907.782
1088.68,912.721
1089.14,914.11
1089.59,913.449
1090.05,909.338
1090.51,915.077
1090.97,910.716
1091.43,912.306
1091.88,912.995
1092.34,915.634
1092.8,911.773
1093.26,908.962
1093.71,905.951
1094.17,908.49
1094.63,916.83
1095.09,919.169
1095.54,911.958
1096,912.447
1096.46,911.836
1096.92,917.925
1097.38,904.064
1097.83,915.353
1098.29,921.192
1098.75,909.232
1099.2,906.771
1099.66,915.66
1100.12,912.849
1100.57,907.288
1101.03,914.127
1101.49,911.166
1101.95,913.356
1102.4,911.945
1102.86,913.084
1103.32,915.723
1103.78,912.212
1104.23,920.051
1104.69,917.39
1105.14,911.629
1105.6,911.569
1106.06,911.458
1106.52,918.147
1106.97,911.386
1107.43,919.425
1107.88,912.114
1108.34,923.303
1108.8,909.643
1109.26,923.281
1109.71,909.771
1110.17,916.71
1110.62,912.099
1111.08,920.138
1111.54,915.427
1111.99,913.116
1112.45,912.406
1112.9,914.795
1113.36,921.684
1113.82,922.423
1114.27,920.312
1114.73,925.801
1115.19,916.24
1115.64,916.329
1116.1,914.519
1116.55,917.008
1117.01,913.247
1117.47,918.436
1117.92,926.125
1118.38,919.564
1118.83,918.853
1119.29,923.742
1119.74,921.032
1120.2,921.571
1120.66,924.16
1121.11,924.549
1121.57,925.938
1122.02,927.527
1122.48,915.966
1122.93,920.905
1123.39,929.345
1123.85,922.234
1124.3,924.073
1124.75,921.712
1125.21,927.001
1125.67,920.19
1126.12,915.729
1126.58,922.019
1127.03,926.958
1127.49,922.647
1127.94,927.336
1128.4,928.075
1128.85,924.964
1129.31,920.903
1129.76,928.392
1130.22,920.982
1130.67,920.921
1131.13,925.41
1131.58,927.849
1132.04,924.638
1132.49,925.227
1132.94,926.417
1133.4,930.305
1133.85,923.145
1134.31,919.584
1134.76,906.173
1135.22,920.312
1135.67,920.801
1136.13,924.54
1136.58,923.38
1137.04,925.169
1137.49,920.058
1137.94,917.847
1138.4,920.286
1138.85,927.475
1139.31,924.764
1139.76,915.803
1140.22,926.242
1140.67,927.881
1141.12,918.621
1141.58,924.76
1142.03,913.649
1142.49,925.188
1142.94,926.677
1143.39,941.066
1143.85,928.656
1144.3,922.795
1144.76,924.484
1145.21,924.173
1145.66,924.012
1146.12,922.551
1146.57,917.89
1147.02,926.629
1147.48,929.518
1147.93,934.458
1148.39,931.247
1148.84,917.486
1149.29,929.175
1149.75,928.164
1150.2,931.353
1150.65,925.692
1151.11,923.132
1151.56,927.621
1152.01,923.01
1152.46,927.049
1152.92,927.938
1153.37,926.227
1153.82,933.666
1154.28,931.205
1154.73,921.695
1155.18,925.634
1155.64,929.873
1156.09,927.912
1156.54,928.201
1157,931.89
1157.45,920.179
1157.9,933.818
1158.36,928.657
1158.81,925.047
1159.26,928.286
1159.71,925.225
1160.17,934.564
1160.62,930.053
1161.07,929.942
1161.52,924.581
1161.97,930.871
1162.43,929.76
1162.88,935.349
1163.33,935.138
1163.79,924.827
1164.24,927.066
1164.69,929.455
1165.14,928.945
1165.59,923.984
1166.05,929.773
1166.5,931.412
1166.95,929.501
1167.4,931.89
1167.86,923.229
1168.31,922.868
1168.76,930.158
1169.21,932.647
1169.66,930.636
1170.12,932.175
1170.57,932.364
1171.02,932.753
1171.47,935.892
1171.92,939.331
1172.38,930.021
1172.83,923.01
1173.28,928.199
1173.73,926.088
1174.18,933.127
1174.63,930.616
1175.09,931.755
1175.54,940.444
1175.99,930.634
1176.44,931.523
1176.89,924.662
1177.34,923.801
1177.79,930.14
1178.24,930.579
1178.7,927.868
1179.15,928.208
1179.6,933.047
1180.05,932.086
1180.5,934.575
1180.95,935.314
1181.4,932.703
1181.85,928.942
1182.31,930.781
1182.76,931.021
1183.21,921.21
1183.66,929.149
1184.11,935.438
1184.56,931.627
1185.01,925.966
1185.46,930.255
1185.91,928.294
1186.36,923.784
1186.81,928.523
1187.26,929.812
1187.71,933.301
1188.16,929.99
1188.62,931.929
1189.07,932.018
1189.52,929.057
1189.97,927.347
1190.42,929.186
1190.87,931.475
1191.32,928.464
1191.77,936.703
1192.22,941.192
1192.67,923.281
1193.12,945.67
1193.57,933.81
1194.02,935.199
1194.47,940.938
1194.92,933.477
1195.37,931.816
1195.82,925.555
1196.27,935.244
1196.72,947.383
1197.17,932.723
1197.62,935.662
1198.07,942.101
1198.52,929.14
1198.97,932.229
1199.42,931.918
1199.87,935.357
1200.32,932.947
1200.77,932.936
1201.22,942.575
1201.67,934.864
1202.11,937.103
1202.56,940.892
1203.01,931.981
1203.46,943.171
1203.91,934.56
1204.36,935.949
1204.81,933.438
1205.26,945.077
1205.71,936.016
1206.16,937.455
1206.61,941.144
1207.06,944.684
1207.51,939.222
1207.96,929.762
1208.4,943.151
1208.85,943.59
1209.3,942.879
1209.75,934.368
1210.2,942.107
1210.65,939.697
1211.1,942.336
1211.55,938.975
1212,934.214
1212.45,935.003
1212.89,934.192
1213.34,938.481
1213.79,941.42
1214.24,937.11
1214.69,943.149
1215.14,945.888
1215.58,943.927
1216.03,942.316
1216.48,936.205
1216.93,942.344
1217.38,953.283
1217.83,945.923
1218.28,944.462
1218.72,944.101
1219.17,949.59
1219.62,944.029
1220.07,947.868
1220.52,935.507
1220.96,944.497
1221.41,946.036
1221.86,939.275
1222.31,941.264
1222.76,947.853
1223.2,946.442
1223.65,945.531
1224.1,949.32
1224.55,945.96
1224.99,942.799
1225.44,937.588
1225.89,943.327
1226.34,959.666
1226.79,946.455
1227.23,953.294
1227.68,946.833
1228.13,953.473
1228.58,949.112
1229.02,952.101
1229.47,948.29
1229.92,946.629
1230.37,960.418
1230.81,955.257
1231.26,950.196
1231.71,947.486
1232.16,954.925
1232.6,948.564
1233.05,957.803
1233.5,962.342
1233.94,953.681
1234.39,961.37
1234.84,951.91
1235.29,960.099
1235.73,948.638
1236.18,957.327
1236.63,953.666
1237.07,952.605
1237.52,957.194
1237.97,963.233
1238.41,959.923
1238.86,947.862
1239.31,964.201
1239.75,954.69
1240.2,959.329
1240.65,966.068
1241.09,959.707
1241.54,966.196
1241.99,962.386
1242.43,965.975
1242.88,957.314
1243.32,962.853
1243.77,960.342
1244.22,963.581
1244.67,965.47
1245.11,963.509
1245.56,962.499
1246,956.788
1246.45,960.677
1246.9,964.266
1247.34,959.655
1247.79,970.844
1248.23,964.683
1248.68,966.723
1249.12,964.612
1249.57,962.851
1250.02,977.64
1250.46,969.379
1250.91,970.918
1251.35,974.907
1251.8,972.647
1252.25,964.285
1252.69,976.975
1253.14,972.014
1253.58,975.903
1254.03,968.192
1254.47,978.531
1254.92,964.47
1255.37,971.359
1255.81,974.848
1256.26,976.888
1256.7,968.877
1257.15,969.716
1257.59,974.805
1258.04,979.544
1258.48,968.933
1258.93,977.922
1259.37,969.212
1259.82,979.901
1260.26,973.04
1260.71,977.729
1261.15,970.768
1261.6,967.607
1262.04,981.096
1262.49,973.485
1262.93,970.225
1263.38,984.714
1263.82,976.003
1264.27,975.792
1264.71,975.731
1265.16,974.32
1265.6,979.109
1266.05,982.099
1266.49,973.238
1266.94,983.177
1267.38,986.566
1267.83,976.955
1268.27,979.894
1268.72,982.833
1269.16,985.372
1269.6,978.262
1270.05,979.351
1270.49,982.29
1270.94,982.729
1271.38,993.168
1271.82,982.157
1272.27,982.146
1272.71,986.035
1273.16,985.924
1273.6,980.164
1274.05,983.903
1274.49,989.692
1274.94,984.581
1275.38,983.62
1275.82,988.059
1276.27,983.499
1276.71,986.338
1277.15,996.577
1277.6,996.966
1278.04,996.205
1278.48,983.244
1278.93,985.483
1279.37,993.772
1279.82,985.062
1280.26,993.651
1280.7,987.39
1281.15,991.079
1281.59,997.118
1282.03,989.907
1282.48,995.946
1282.92,986.485
1283.36,991.325
1283.81,992.214
1284.25,991.653
1284.69,996.492
1285.14,998.181
1285.58,993.17
1286.02,999.709
1286.47,1002.6
1286.91,992.338
1287.35,995.527
1287.8,999.766
1288.24,1002.85
1288.68,1005.94
1289.13,997.183
1289.57,994.022
1290.01,1001.41
1290.45,997.301
1290.9,1002.59
1291.34,1006.88
1291.78,997.618
1292.22,1006.21
1292.67,1002.55
1293.11,1006.99
1293.55,1006.92
1293.99,1001.46
1294.44,998.303
1294.88,1006.69
1295.32,1003.18
1295.76,1011.92
1296.21,1006.51
1296.65,1006.05
1297.09,1005.24
1297.53,1007.38
1297.98,1003.47
1298.42,1008.91
1298.86,1008.64
1299.3,1005.58
1299.75,1011.97
1300.19,1005.31
1300.63,1007.55
1301.07,1010.54
1301.51,1008.23
1301.96,1013.77
1302.4,1014.11
1302.84,1006.7
1303.28,1010.64
1303.72,1004.92
1304.17,1013.41
1304.61,1005.8
1305.05,1019.84
1305.49,1018.58
1305.93,1003.87
1306.37,996.809
1306.82,1016.05
1307.26,1012.14
1307.7,1005.58
1308.14,1016.67
1308.58,1004.65
1309.02,1015.59
1309.46,1016.48
1309.91,1007.32
1310.35,1017.26
1310.79,1016.7
1311.23,1010.24
1311.67,1020.33
1312.11,1021.02
1312.55,1017.21
1312.99,1012.85
1313.44,1010.89
1313.88,1006.07
1314.32,1012.31
1314.76,1008.55
1315.2,1011.64
1315.64,1014.18
1316.08,1011.92
1316.52,1017.76
1316.96,1015.5
1317.4,1015.94
1317.84,1019.43
1318.29,1012.87
1318.73,1021.66
1319.17,1012.14
1319.61,1019.53
1320.05,1014.62
1320.49,1027.76
1320.93,1017.6
1321.37,1021.24
1321.81,1021.28
1322.25,1023.27
1322.69,1023.26
1323.13,1014.3
1323.57,1029.49
1324.01,1018.82
1324.45,1020.66
1324.89,1026.25
1325.33,1020.19
1325.77,1025.08
1326.21,1022.52
1326.65,1024.61
1327.09,1024.3
1327.53,1019.64
1327.97,1018.68
1328.41,1018.82
1328.85,1024
1329.29,1028.84
1329.73,1026.33
1330.17,1022.67
1330.61,1028.11
1331.05,1026.15
1331.49,1029.14
1331.93,1030.38
1332.37,1023.37
1332.81,1035.81
1333.25,1026.75
1333.69,1027.99
1334.13,1026.77
1334.57,1033.86
1335.01,1025.45
1335.45,1033.94
1335.89,1035.33
1336.33,1023.07
1336.77,1031.81
1337.21,1031.45
1337.65,1036.09
1338.09,1028.73
1338.52,1034.87
1338.96,1030.5
1339.4,1030.99
1339.84,1031.73
1340.28,1036.82
1340.72,1036.41
1341.16,1041.1
1341.6,1043.29
1342.04,1035.03
1342.48,1032.92
1342.91,1029.81
1343.35,1031.6
1343.79,1041.59
1344.23,1033.57
1344.67,1035.71
1345.11,1031.65
1345.55,1028.29
1345.99,1031.78
1346.42,1044.57
1346.86,1038.26
1347.3,1037.6
1347.74,1040.44
1348.18,1041.73
1348.62,1036.62
1349.06,1044.65
1349.49,1034.84
1349.93,1033.58
1350.37,1034.32
1350.81,1033.36
1351.25,1037.1
1351.69,1039.44
1352.12,1040.68
1352.56,1037.12
1353,1034.91
1353.44,1037.45
1353.88,1043.69
1354.31,1045.37
1354.75,1036.91
1355.19,1037.1
1355.63,1039.89
1356.06,1039.43
1356.5,1031.42
1356.94,1036.01
1357.38,1033.1
1357.82,1037.44
1358.25,1043.33
1358.69,1039.17
1359.13,1035.7
1359.57,1039.89
1360,1048.43
1360.44,1039.62
1360.88,1040.56
1361.32,1039.55
1361.76,1045.49
1362.19,1039.68
1362.63,1043.87
1363.07,1044.61
1363.5,1051.25
1363.94,1042.99
1364.38,1039.42
1364.82,1042.16
1365.25,1036.8
1365.69,1028.64
1366.13,1039.68
1366.56,1028.07
1367,1045.31
1367.44,1036.85
1367.88,1045.79
1368.31,1033.23
1368.75,1042.47
1369.19,1045.65
1369.62,1036.34
1370.06,1048.53
1370.5,1037.67
1370.93,1038.91
1371.37,1040.9
1371.81,1044.19
1372.24,1045.48
1372.68,1043.97
1373.12,1036.16
1373.55,1042.38
1373.99,1041.22
1374.43,1039.54
1374.86,1040.65
1375.3,1038.58
1375.74,1037.45
1376.17,1045.15
1376.61,1036.22
1377.04,1040.56
1377.48,1039.47
1377.92,1042.09
1378.35,1042.85
1378.79,1043.08
1379.23,1040.06
1379.66,1044.97
1380.1,1036.8
1380.53,1039.74
1380.97,1039.34
1381.41,1044.83
1381.84,1043.9
1382.28,1049.15
1382.71,1034.43
1383.15,1045.94
1383.59,1039.87
1384.02,1039.95
1384.46,1043.02
1384.89,1045.15
1385.33,1039.08
1385.76,1045.51
1386.2,1039.56
1386.63,1044.91
1387.07,1044.11
1387.51,1042.56
1387.94,1045.65
1388.38,1038.37
1388.81,1040.4
1389.25,1037.11
1389.68,1036.84
1390.12,1038.57
1390.55,1036.62
1390.99,1042.26
1391.42,1037.57
1391.86,1036.96
1392.29,1037.68
1392.73,1038.22
1393.17,1033.79
1393.6,1033.31
1394.04,1035
1394.47,1037.94
1394.9,1031.25
1395.34,1036.98
1395.77,1040.7
1396.21,1033.68
1396.64,1028.39
1397.08,1030.11
1397.51,1031.67
1397.95,1031.45
1398.38,1033.9
1398.82,1030.29
1399.25,1030.96
1399.69,1031.79
1400.12,1025.7
1400.56,1030.13
1400.99,1026.1
1401.42,1028.96
1401.86,1028.03
1402.29,1024.75
1402.73,1024.55
1403.16,1024.95
1403.6,1025.37
1404.03,1023.45
1404.46,1025.4
1404.9,1027.51
1405.33,1021.37
1405.77,1022.81
1406.2,1023.48
1406.64,1024.03
1407.07,1018.53
1407.5,1023.01
1407.94,1025.14
1408.37,1021.76
1408.81,1028.29
1409.24,1027
1409.67,1018.12
1410.11,1021.74
1410.54,1023.03
1410.97,1024.77
1411.41,1023.62
1411.84,1026.39
1412.27,1019.41
1412.71,1025.16
1413.14,1027.99
1413.58,1037.1
1414.01,1037.09
1414.44,1031.15
1414.88,1039.12
1415.31,1048.07
1415.74,1052.63
1416.18,1064.04
1416.61,1070.43
1417.04,1095.85
1417.48,1111.9
1417.91,1128.58
1418.33,1152.24
1418.77,1168.09
1419.21,1182.84
1419.65,1185.94
1420.09,1175.83
1420.53,1160.33
1420.96,1131.08
1421.4,1113.18
1421.84,1086.63
1422.28,1072.62
1422.72,1063.92
1423.15,1040.92
1423.59,1046.77
1424.03,1026.57
1424.47,1033.02
1424.91,1030.06
1425.34,1025.36
1425.78,1023.06
1426.22,1019.11
1426.66,1023.66
1427.09,1015.1
1427.53,1022.05
1427.97,1024.55
1428.41,1019.6
1428.84,1022.45
1429.28,1013.1
1429.72,1019.44
1430.16,1007.59
1430.6,1013.24
1431.03,1007.94
1431.47,1021.39
1431.91,1011.68
1432.34,1015.43
1432.78,1020.63
1433.22,1011.43
1433.66,1016.83
1434.09,1016.72
1434.53,1011.22
1434.97,1018.57
1435.41,1008.22
1435.84,1016.42
1436.28,1012.42
1436.72,1020.91
1437.15,1010.36
1437.59,1023.36
1438.03,1008.21
1438.47,1018.96
1438.9,1016.45
1439.34,1010.65
1439.78,1015.85
1440.21,1015.85
1440.65,1025.1
1441.09,1010.94
1441.52,1018.59
1441.96,1024.59
1442.4,1014.94
1442.83,1009.79
1443.27,1006.74
1443.71,1008.93
1444.14,1014.38
1444.58,1014.63
1445.02,1012.78
1445.45,1008.63
1445.89,1010.77
1446.33,1009.19
1446.76,1006.65
1447.2,1013.32
1447.63,1015.88
1448.07,1008.55
1448.51,1010.81
1448.94,1013.01
1449.38,1009.51
1449.82,1009.06
1450.25,1013.66
1450.69,1016.9
1451.12,1003.45
1451.56,1004.55
1451.99,1008.35
1452.43,1008.4
1452.87,1005.04
1453.3,1010.59
1453.74,1009.24
1454.18,1010.59
1454.61,1013.04
1455.05,1015.04
1455.48,1013.38
1455.92,1010.68
1456.35,1016.73
1456.79,1003.63
1457.22,1010.03
1457.66,1002.17
1458.09,1014.62
1458.53,1010.37
1458.97,1011.32
1459.4,1004.12
1459.84,995.015
1460.27,1007.16
1460.71,1010.06
1461.14,1010.96
1461.58,1010.06
1462.01,1006.96
1462.45,1009.5
1462.88,1006.3
1463.32,1018.1
1463.75,1013.65
1464.19,1007.45
1464.62,1004.04
1465.06,1006.69
1465.49,1010.69
1465.93,1008.74
1466.36,1006.99
1466.8,1001.44
1467.23,1009.23
1467.67,1015.73
1468.1,1011.73
1468.54,1003.98
1468.97,1007.03
1469.41,1003.62
1469.84,1005.87
1470.28,1006.52
1470.71,1008.52
1471.15,1013.47
1471.58,1004.82
1472.01,999.063
1472.45,1002.66
1472.88,998.059
1473.32,1005.41
1473.75,999.806
1474.19,1005.85
1474.62,1010.5
1475.06,1011.75
1475.49,1009.6
1475.92,1008.2
1476.36,1002.19
1476.79,1007.69
1477.23,1012.09
1477.66,1005.99
1478.09,1011.79
1478.53,1010.59
1478.96,1004.38
1479.4,1010.73
1479.83,1004.68
1480.26,1007.18
1480.7,1009.68
1481.13,1019.92
1481.57,1015.72
1482,1009.47
1482.43,1018.67
1482.87,998.767
1483.3,1008.36
1483.73,1007.71
1484.17,1004.96
1484.6,1018.71
1485.03,1022.11
1485.47,1022.81
1485.9,1010.75
1486.34,1013.45
1486.77,1014.15
1487.2,1024.25
1487.64,1011.3
1488.07,1015.59
1488.5,1021.44
1488.93,1017.34
1489.37,1020.24
1489.8,1014.09
1490.23,1018.48
1490.67,1020.13
1491.1,1010.93
1491.53,1023.48
1491.96,1018.73
1492.4,1028.88
1492.83,1029.42
1493.26,1023.67
1493.7,1028.52
1494.13,1029.77
1494.56,1030.92
1495,1039.36
1495.43,1028.61
1495.86,1035.46
1496.29,1028.31
1496.73,1031.41
1497.16,1039.01
1497.59,1042.65
1498.02,1044.15
1498.46,1038.65
1498.89,1053.5
1499.32,1046.5
1499.75,1052.69
1500.19,1057.54
1500.62,1066.24
1501.05,1062.64
1501.48,1063.59
1501.92,1077.09
1502.35,1078.93
1502.78,1073.28
1503.21,1077.08
1503.64,1090.38
1504.08,1100.43
1504.51,1100.72
1504.94,1104.82
1505.37,1104.97
1505.8,1117.92
1506.24,1117.17
1506.67,1122.01
1507.1,1127.31
1507.53,1136.96
1507.96,1136.11
1508.4,1126.36
1508.83,1117.91
1509.26,1114.95
1509.69,1119.2
1510.12,1114.7
1510.55,1101.3
1510.99,1116.05
1511.42,1093.99
1511.85,1098.49
1512.28,1086.29
1512.71,1075.99
1513.14,1068.99
1513.57,1064.78
1514.01,1060.98
1514.44,1062.33
1514.87,1061.93
1515.3,1056.18
1515.73,1048.63
1516.16,1047.62
1516.59,1044.22
1517.03,1041.77
1517.46,1040.62
1517.89,1032.97
1518.32,1021.66
1518.75,1029.91
1519.18,1028.16
1519.61,1031.56
1520.04,1028.21
1520.47,1023.21
1520.9,1028
1521.34,1019.6
1521.77,1023.1
1522.2,1016.75
1522.63,1024.3
1523.06,1017.94
1523.49,1017.74
1523.92,1016.09
1524.35,1024.34
1524.78,1016.19
1525.21,1016.13
1525.64,1018.18
1526.07,1021.28
1526.5,1019.68
1526.93,1014.63
1527.36,1018.33
1527.79,1019.42
1528.22,1008.82
1528.65,1011.77
1529.08,1018.62
1529.51,1015.37
1529.95,1011.76
1530.37,1015.16
1530.81,1016.76
1531.23,1011.76
1531.67,1009.91
1532.1,1017.35
1532.52,1008.5
1532.96,1015.2
1533.38,1004.65
1533.82,1008.5
1534.24,1006.85
1534.67,1007.29
1535.1,1010.99
1535.53,1005.89
1535.96,1010.34
1536.39,1015.19
1536.82,1015.43
1537.25,1011.58
1537.68,1010.68
1538.11,1007.93
1538.54,1011.93
1538.97,1004.48
1539.4,1001.12
1539.83,1010.32
1540.26,1010.92
1540.69,1019.52
1541.12,986.366
1541.55,1011.66
1541.98,1010.71
1542.41,1012.31
1542.84,1011.36
1543.26,1007.76
1543.69,1013.75
1544.12,1004.15
1544.55,1010.8
1544.98,1006.65
1545.41,1009.9
1545.84,1003.45
1546.27,1015.04
1546.7,1019.59
1547.13,1009.79
1547.56,1012.49
1547.98,1013.74
1548.41,1000.38
1548.84,1011.53
1549.27,1009.23
1549.7,1007.38
1550.13,1013.88
1550.56,1016.22
1550.98,1009.02
1551.41,1018.17
1551.84,1013.72
1552.27,1014.92
1552.7,1009.67
1553.13,1015.21
1553.56,1012.11
1553.98,1008.96
1554.41,1016.56
1554.84,1019.71
1555.27,1017.6
1555.7,1010.35
1556.13,1014.7
1556.55,1022.55
1556.98,1021.55
1557.41,1011.15
1557.84,1011.64
1558.27,1012.39
1558.69,1007.84
1559.12,1006.44
1559.55,1006.99
1559.98,1016.83
1560.41,1008.13
1560.84,1012.83
1561.26,1023.13
1561.69,1017.93
1562.12,1013.27
1562.55,1013.37
1562.97,1009.62
1563.4,1009.42
1563.83,1004.62
1564.26,1014.02
1564.68,1011.61
1565.11,1005.26
1565.54,1012.46
1565.97,1020.71
1566.39,1014.86
1566.82,1015.95
1567.25,1012.25
1567.68,1025.55
1568.1,1016.9
1568.53,1019.2
1568.96,1018.85
1569.39,1020.99
1569.81,1019.99
1570.24,1013.94
1570.67,1017.59
1571.09,1010.79
1571.52,1024.18
1571.95,1021.08
1572.38,1020.78
1572.8,1023.13
1573.23,1020.68
1573.66,1027.97
1574.08,1032.17
1574.51,1021.97
1574.94,1031.97
1575.36,1020.57
1575.79,1034.12
1576.22,1029.56
1576.64,1019.16
1577.07,1031.56
1577.5,1026.91
1577.93,1027.51
1578.35,1033.3
1578.78,1029.05
1579.2,1042.35
1579.63,1026.55
1580.06,1033.3
1580.48,1028.54
1580.91,1032.99
1581.34,1025.14
1581.76,1035.44
1582.19,1026.94
1582.61,1039.24
1583.04,1037.83
1583.47,1027.88
1583.89,1032.43
1584.32,1026.18
1584.75,1026.68
1585.17,1029.97
1585.6,1022.87
1586.02,1030.37
1586.45,1027.97
1586.88,1014.32
1587.3,1026.27
1587.73,1030.76
1588.16,1025.11
1588.58,1031.56
1589.01,1020.31
1589.43,1022.96
1589.86,1028.8
1590.28,1025.85
1590.71,1026.6
1591.13,1024.5
1591.56,1019.3
1591.99,1016.24
1592.41,1029.99
1592.84,1019.09
1593.26,1020.64
1593.69,1022.64
1594.11,1029.99
1594.54,1031.33
1594.96,1027.63
1595.39,1028.28
1595.82,1014.63
1596.24,1020.73
1596.67,1026.82
1597.09,1025.32
1597.52,1025.37
1597.94,1021.72
1598.37,1020.72
1598.79,1025.56
1599.22,1022.21
1599.64,1018.21
1600.07,1031.21
1600.49,1021.91
1600.92,1025.96
1601.34,1023.6
1601.77,1018.95
1602.19,1010.75
1602.62,1027.7
1603.04,1021.3
1603.46,1022.04
1603.89,1020.39
1604.31,1019.59
1604.74,1019.89
1605.16,1023.09
1605.59,1022.19
1606.01,1017.53
1606.44,1023.43
1606.86,1026.73
1607.29,1018.68
1607.71,1027.13
1608.14,1024.82
1608.56,1025.42
1608.98,1024.27
1609.41,1021.57
1609.83,1012.42
1610.26,1013.11
1610.68,1007.76
1611.1,1013.51
1611.53,1011.96
1611.95,1017.71
1612.38,1013.06
1612.8,1012.4
1613.22,1011
1613.65,1011.85
1614.07,1017.95
1614.5,1010.3
1614.92,1017.89
1615.34,1016.44
1615.77,1015.04
1616.19,1015.54
1616.62,1012.54
1617.04,1009.64
1617.46,1012.38
1617.89,1017.28
1618.31,1015.23
1618.73,1005.43
1619.16,1013.43
1619.58,1019.87
1620,1012.32
1620.43,1014.22
1620.85,1003.92
1621.28,1009.02
1621.7,1005.36
1622.12,1011.36
1622.55,1005.96
1622.97,1013.61
1623.39,1007.11
1623.81,1005.36
1624.24,1003.65
1624.66,999.502
1625.08,1016.25
1625.51,998.398
1625.93,1005.2
1626.35,998.994
1626.78,1002.24
1627.2,1004.89
1627.62,1003.14
1628.05,1007.04
1628.47,1006.08
1628.89,1008.48
1629.31,1001.18
1629.74,999.079
1630.16,994.478
1630.58,997.476
1631,1001.42
1631.43,997.622
1631.85,992.37
1632.27,998.218
1632.7,996.016
1633.12,1000.01
1633.54,1001.86
1633.96,994.511
1634.39,998.259
1634.81,1000.36
1635.23,993.505
1635.65,995.903
1636.07,993.501
1636.5,991.4
1636.92,987.298
1637.34,985.046
1637.76,1002.24
1638.19,990.692
1638.61,983.84
1639.03,991.788
1639.45,991.987
1639.87,989.835
1640.3,989.633
1640.72,988.181
1641.14,990.079
1641.56,994.727
1641.98,988.475
1642.4,988.174
1642.83,1001.82
1643.25,981.77
1643.67,990.418
1644.09,990.066
1644.51,984.414
1644.94,984.313
1645.36,984.261
1645.78,992.509
1646.2,979.757
1646.62,977.805
1647.04,987.103
1647.47,988.501
1647.89,977.199
1648.31,974.248
1648.73,983.546
1649.15,985.344
1649.57,976.892
1649.99,976.19
1650.42,985.788
1650.83,979.536
1651.26,978.285
1651.68,975.933
1652.1,985.881
1652.52,979.679
1652.94,972.477
1653.36,975.925
1653.78,975.023
1654.2,979.022
1654.62,985.47
1655.05,973.018
1655.47,971.816
1655.89,980.664
1656.31,978.962
1656.73,974.51
1657.15,974.109
1657.57,980.757
1657.99,971.705
1658.41,968.603
1658.83,970.751
1659.25,973.549
1659.67,965.298
1660.09,966.546
1660.51,969.694
1660.94,968.842
1661.35,970.59
1661.78,973.138
1662.2,975.086
1662.62,971.134
1663.04,971.083
1663.46,970.931
1663.88,977.179
1664.3,963.177
1664.72,970.375
1665.14,966.873
1665.56,957.021
1665.98,965.92
1666.4,970.718
1666.82,962.316
1667.24,967.364
1667.66,966.212
1668.08,963.11
1668.5,968.758
1668.92,968.307
1669.34,970.105
1669.76,962.653
1670.18,967.301
1670.6,969.099
1671.02,961.797
1671.44,964.345
1671.86,966.543
1672.28,964.542
1672.7,964.44
1673.11,962.388
1673.53,958.186
1673.95,961.734
1674.37,958.882
1674.79,961.681
1675.21,956.579
1675.63,953.977
1676.05,962.075
1676.47,966.273
1676.89,957.121
1677.31,961.069
1677.73,965.768
1678.15,965.666
1678.57,961.714
1678.98,964.962
1679.4,959.81
1679.82,968.658
1680.24,966.856
1680.66,959.254
1681.08,963.353
1681.5,958.651
1681.92,962.149
1682.34,945.647
1682.76,947.145
1683.17,960.393
1683.59,955.141
1684.01,953.19
1684.43,960.838
1684.85,959.536
1685.27,961.234
1685.69,959.532
1686.1,958.955
1686.52,958.379
1686.94,962.827
1687.36,958.075
1687.78,953.273
1688.2,958.271
1688.62,960.069
1689.03,952.617
1689.45,954.916
1689.87,954.514
1690.29,954.962
1690.71,956.51
1691.13,952.008
1691.54,961.806
1691.96,952.354
1692.38,956.853
1692.8,962.701
1693.22,948.049
1693.64,947.047
1694.05,950.195
1694.47,948.043
1694.89,951.691
1695.31,951.639
1695.72,951.888
1696.14,950.086
1696.56,954.434
1696.98,945.332
1697.4,953.93
1697.81,949.778
1698.23,950.377
1698.65,954.225
1699.06,949.873
1699.48,945.221
1699.9,953.469
1700.32,950.767
1700.74,949.265
1701.15,954.913
1701.57,946.612
1701.99,948.26
1702.41,946.308
1702.82,955.356
1703.24,956.154
1703.66,951.702
1704.07,949.75
1704.49,948.249
1704.91,949.647
1705.33,950.045
1705.74,952.643
1706.16,948.591
1706.58,953.789
1706.99,954.037
1707.41,952.836
1707.83,952.984
1708.24,954.882
1708.66,958.88
1709.08,954.578
1709.5,962.276
1709.91,974.575
1710.33,961.473
1710.75,962.121
1711.16,965.719
1711.58,960.767
1712,953.865
1712.41,961.513
1712.83,953.762
1713.25,964.16
1713.66,958.908
1714.08,957.856
1714.49,959.054
1714.91,955.052
1715.33,951.4
1715.74,955.398
1716.16,958.597
1716.58,954.445
1716.99,955.543
1717.41,962.491
1717.83,964.739
1718.24,958.587
1718.66,953.435
1719.07,954.334
1719.49,956.882
1719.91,954.38
1720.32,959.128
1720.74,959.126
1721.16,960.624
1721.57,958.872
1721.99,964.321
1722.4,964.369
1722.82,952.917
1723.23,952.415
1723.65,951.913
1724.07,963.461
1724.48,955.16
1724.9,959.008
1725.31,957.956
1725.73,956.754
1726.14,956.552
1726.56,960.15
1726.97,961.348
1727.39,950.697
1727.81,957.495
1728.22,963.843
1728.64,959.141
1729.05,960.489
1729.47,956.037
1729.88,947.535
1730.3,952.483
1730.71,957.332
1731.13,948.18
1731.54,951.528
1731.96,957.526
1732.37,956.974
1732.79,955.272
1733.2,961.32
1733.62,955.069
1734.03,960.667
1734.45,953.715
1734.86,958.813
1735.28,966.461
1735.69,960.159
1736.11,962.458
1736.52,959.556
1736.94,959.404
1737.35,962.452
1737.77,957.65
1738.18,960.398
1738.6,955.146
1739.01,957.744
1739.43,949.593
1739.84,959.491
1740.25,956.739
1740.67,955.037
1741.08,949.485
1741.5,953.783
1741.91,953.781
1742.33,964.13
1742.74,960.128
1743.16,959.526
1743.57,957.274
1743.99,951.972
1744.4,954.57
1744.81,959.818
1745.23,962.516
1745.64,961.165
1746.06,957.013
1746.47,964.861
1746.88,959.609
1747.3,961.907
1747.71,968.505
1748.13,965.354
1748.54,968.452
1748.95,972.45
1749.37,969.848
1749.78,968.096
1750.2,971.994
1750.61,968.592
1751.02,970.091
1751.44,966.789
1751.85,964.037
1752.26,966.635
1752.68,960.633
1753.09,969.831
1753.5,965.229
1753.92,963.828
1754.33,965.726
1754.74,961.124
1755.16,964.722
1755.57,966.82
1755.98,954.268
1756.4,967.167
1756.81,963.865
1757.22,964.613
1757.64,969.511
1758.05,963.709
1758.46,967.107
1758.88,967.005
1759.29,971.404
1759.7,963.952
1760.12,964.4
1760.53,964.348
1760.94,956.546
1761.35,972.844
1761.77,968.442
1762.18,965.59
1762.59,964.189
1763.01,963.437
1763.42,975.335
1763.83,957.833
1764.25,964.781
1764.66,968.229
1765.07,961.277
1765.48,974.726
1765.9,965.824
1766.31,966.203
1766.72,962.661
1767.13,967.824
1767.55,969.698
1767.96,970.521
1768.37,965.285
1768.78,973.665
1769.2,960.934
1769.61,965.688
1770.02,959.952
1770.43,961.736
1770.84,963.686
1771.26,958.546
1771.67,961.219
1772.08,951.989
1772.49,962.032
1772.91,957.071
1773.32,952.786
1773.73,954.318
1774.14,954.591
1774.55,949.694
1774.97,946.849
1775.38,951.289
1775.79,947.697
1776.2,941.952
1776.61,949.261
1777.02,945.347
1777.44,942.379
1777.85,940.079
1778.26,941.32
1778.67,945.069
1779.08,942.973
1779.5,940.969
1779.91,939.248
1780.32,939.844
1780.73,940.927
1781.14,936.32
1781.55,937.977
1781.96,937.616
1782.38,940.926
1782.79,936.434
1783.2,939.345
1783.61,940.027
1784.02,940.818
1784.43,938.275
1784.84,937.075
1785.25,935.354
1785.67,934.762
1786.08,939.542
1786.49,938.583
1786.9,936.544
1787.31,930.401
1787.72,936.244
1788.13,937.811
1788.54,932.713
1788.95,931.11
1789.36,930.704
1789.77,933.996
1790.19,936.965
1790.6,932.653
1791.01,928.949
1791.42,933.075
1791.83,932.449
1792.24,931.424
1792.65,932.57
1793.06,932.391
1793.47,931.448
1793.88,935.339
1794.29,930.964
1794.7,930.039
1795.11,928.725
1795.52,931.449
1795.93,929.756
1796.34,926.629
1796.75,929.924
1797.16,929.552
1797.58,927.402
1797.98,930.296
1798.4,929.98
1798.81,930.599
1799.22,929.937
1799.63,925.353
1800.04,923.08
1800.45,927.233
1800.86,925.411
1801.27,924.825
1801.68,924.624
1802.08,925.505
1802.5,930.569
1802.91,930.824
1803.32,927.379
1803.73,924.593
1804.13,926.065
1804.54,923.973
1804.95,925.039
1805.36,925.655
1805.77,922.028
1806.18,922.721
1806.59,925.428
1807,916.912
1807.41,925.423
1807.82,924.141
1808.23,917.526
1808.64,925.067
1808.66,925.501
1809.08,921.01
1809.49,923.52
1809.91,918.73
1810.32,919.89
1810.74,927.85
1811.15,925.909
1811.57,917.619
1811.98,916.129
1812.4,921.789
1812.81,918.548
1813.22,919.908
1813.64,920.368
1814.05,921.778
1814.47,914.787
1814.88,919.697
1815.29,922.157
1815.71,918.367
1816.12,914.977
1816.54,915.236
1816.95,915.596
1817.36,925.056
1817.78,914.015
1818.19,923.325
1818.6,917.235
1819.02,916.195
1819.43,909.054
1819.85,913.814
1820.26,920.024
1820.67,921.034
1821.09,913.144
1821.5,915.103
1821.91,919.163
1822.33,913.773
1822.74,915.533
1823.16,921.192
1823.57,913.202
1823.98,918.662
1824.4,917.222
1824.81,920.381
1825.22,919.141
1825.64,919.301
1826.05,918.16
1826.46,909.62
1826.88,914.13
1827.29,927.94
1827.7,917.649
1828.12,919.259
1828.53,921.819
1828.94,919.829
1829.35,920.039
1829.77,919.148
1830.18,915.808
1830.59,920.518
1831.01,915.428
1831.42,919.737
1831.83,915.747
1832.24,915.657
1832.66,920.067
1833.07,913.876
1833.48,925.436
1833.9,921.846
1834.31,912.356
1834.72,920.565
1835.13,911.775
1835.55,919.785
1835.96,915.945
1836.37,916.804
1836.78,919.214
1837.2,913.674
1837.61,913.634
1838.02,914.093
1838.43,915.753
1838.85,915.813
1839.26,915.673
1839.67,915.383
1840.08,911.442
1840.49,915.652
1840.91,914.212
1841.32,919.521
1841.73,918.081
1842.14,912.341
1842.56,911.001
1842.97,920.161
1843.38,914.62
1843.79,915.18
1844.2,916.39
1844.62,910.95
1845.03,917.759
1845.44,919.669
1845.85,913.279
1846.26,916.589
1846.67,909.548
1847.09,915.458
1847.5,913.168
1847.91,910.827
1848.32,904.987
1848.73,920.247
1849.14,908.007
1849.56,909.317
1849.97,913.076
1850.38,912.936
1850.79,921.596
1851.2,916.856
1851.61,924.215
1852.03,916.225
1852.44,917.235
1852.85,917.095
1853.26,915.504
1853.67,913.864
1854.08,910.474
1854.49,915.834
1854.91,918.943
1855.32,915.103
1855.73,915.413
1856.14,917.973
1856.55,920.133
1856.96,910.342
1857.37,917.302
1857.78,907.462
1858.19,918.172
1858.6,918.881
1859.01,921.141
1859.43,905.051
1859.84,911.76
1860.25,909.92
1860.66,909.28
1861.07,912.14
1861.48,916.2
1861.89,920.709
1862.3,912.769
1862.71,916.979
1863.12,918.039
1863.53,919.798
1863.94,914.458
1864.35,913.468
1864.76,915.677
1865.17,926.887
1865.58,913.447
1865.99,913.257
1866.41,919.966
1866.82,914.526
1867.23,917.486
1867.64,921.346
1868.05,920.005
1868.46,917.415
1868.87,922.725
1869.28,919.235
1869.69,914.045
1870.1,910.654
1870.51,925.964
1870.92,920.874
1871.33,918.134
1871.74,917.793
1872.15,915.303
1872.56,911.163
1872.97,909.273
1873.38,915.832
1873.79,909.392
1874.2,921.852
1874.61,918.562
1875.02,913.021
1875.43,911.081
1875.83,909.841
1876.24,914.251
1876.65,909.36
1877.06,917.92
1877.47,915.73
1877.88,919.289
1878.29,919.199
1878.7,919.759
1879.11,917.319
1879.52,914.479
1879.93,923.289
1880.34,917.648
1880.75,923.758
1881.16,913.968
1881.57,916.927
1881.98,914.937
1882.39,915.647
1882.79,915.157
1883.2,916.966
1883.61,918.976
1884.02,919.236
1884.43,912.796
1884.84,918.806
1885.25,917.415
1885.66,918.825
1886.07,911.035
1886.47,923.694
1886.89,913.704
1887.29,918.364
1887.7,916.424
1888.11,914.534
1888.52,919.093
1888.93,911.853
1889.34,917.663
1889.75,916.872
1890.15,911.432
1890.56,914.292
1890.97,917.902
1891.38,913.112
1891.79,923.721
1892.2,918.081
1892.6,909.641
1893.01,915.25
1893.42,914.06
1893.83,915.97
1894.24,918.08
1894.65,919.24
1895.06,921.949
1895.46,918.609
1895.87,919.469
1896.28,914.829
1896.69,920.388
1897.1,919.598
1897.5,917.208
1897.91,922.918
1898.32,918.727
1898.73,911.587
1899.14,921.747
1899.54,909.607
1899.95,911.966
1900.36,911.126
1900.77,911.336
1901.18,915.046
1901.58,913.706
1901.99,908.465
1902.4,915.975
1902.81,917.135
1903.21,910.445
1903.62,919.654
1904.03,918.964
1904.44,916.624
1904.84,910.883
1905.25,905.793
1905.66,916.803
1906.07,915.613
1906.47,912.122
1906.88,918.432
1907.29,916.142
1907.7,912.052
1908.1,912.411
1908.51,914.171
1908.92,920.831
1909.32,920.091
1909.73,915.951
1910.14,913.56
1910.55,915.52
1910.95,913.78
1911.36,913.04
1911.77,905.449
1912.17,919.759
1912.58,914.319
1912.99,913.979
1913.4,907.088
1913.8,904.448
1914.21,917.108
1914.61,906.218
1915.02,913.277
1915.43,917.187
1915.84,914.097
1916.24,920.257
1916.65,913.666
1917.06,909.926
1917.46,906.436
1917.87,912.796
1918.28,904.456
1918.68,909.215
1919.09,915.325
1919.5,910.035
1919.9,905.794
1920.31,902.404
1920.72,910.964
1921.12,916.224
1921.53,903.934
1921.93,912.393
1922.34,904.403
1922.75,908.763
1923.15,909.272
1923.56,904.582
1923.96,906.042
1924.37,912.252
1924.78,888.912
1925.18,901.371
1925.59,919.881
1925.99,909.291
1926.4,912.8
1926.81,912.06
1927.21,908.27
1927.62,903.88
1928.02,912.39
1928.43,905.899
1928.84,914.259
1929.24,904.019
1929.65,912.379
1930.05,910.238
1930.46,907.248
1930.86,908.858
1931.27,908.518
1931.68,907.027
1932.08,908.037
1932.49,907.847
1932.89,908.107
1933.3,905.266
1933.7,898.026
1934.11,906.136
1934.51,911.596
1934.92,904.055
1935.32,909.065
1935.73,909.975
1936.13,900.235
1936.54,906.294
1936.94,908.154
1937.35,898.364
1937.75,904.774
1938.16,910.433
1938.56,907.543
1938.97,904.703
1939.38,908.013
1939.78,900.823
1940.19,912.982
1940.59,908.642
1941,908.702
1941.4,905.911
1941.81,901.471
1942.21,900.531
1942.61,908.141
1943.02,912.201
1943.42,909.01
1943.83,902.17
1944.23,913.73
1944.64,902.24
1945.04,912.999
1945.45,898.559
1945.85,898.719
1946.26,909.479
1946.66,905.488
1947.06,905.798
1947.47,900.408
1947.87,909.268
1948.28,904.827
1948.68,911.737
1949.09,902.597
1949.49,905.357
1949.89,904.366
1950.3,902.526
1950.7,899.986
1951.11,899.146
1951.51,910.905
1951.92,913.815
1952.32,904.275
1952.72,908.035
1953.13,912.144
1953.53,900.304
1953.94,907.114
1954.34,901.824
1954.74,903.133
1955.15,907.793
1955.55,902.353
1955.96,909.113
1956.36,905.622
1956.76,893.982
1957.17,904.642
1957.57,902.702
1957.97,899.461
1958.38,894.621
1958.78,898.981
1959.18,899.841
1959.59,905.2
1959.99,904.46
1960.4,903.62
1960.8,900.68
1961.2,897.99
1961.6,903.499
1962.01,899.259
1962.41,901.719
1962.81,897.829
1963.22,899.838
1963.62,903.048
1964.03,904.258
1964.43,905.518
1964.83,899.427
1965.23,907.637
1965.64,899.597
1966.04,894.807
1966.44,898.066
1966.85,894.176
1967.25,903.836
1967.65,903.396
1968.05,891.805
1968.46,900.715
1968.86,893.325
1969.26,894.385
1969.67,903.144
1970.07,900.204
1970.47,895.064
1970.87,902.373
1971.28,900.083
1971.68,897.643
1972.08,901.653
1972.49,898.113
1972.89,903.022
1973.29,895.132
1973.69,896.942
1974.1,892.402
1974.5,898.011
1974.9,896.571
1975.3,902.681
1975.7,900.891
1976.11,901.9
1976.51,895.81
1976.91,895.27
1977.31,900.83
1977.72,893.989
1978.12,895.399
1978.52,906.209
1978.92,894.719
1979.32,903.229
1979.73,898.988
1980.13,900.298
1980.53,892.208
1980.93,897.817
1981.33,895.977
1981.74,903.687
1982.14,898.697
1982.54,902.307
1982.94,902.666
1983.34,897.526
1983.74,894.386
1984.15,895.796
1984.55,897.405
1984.95,896.915
1985.35,892.025
1985.75,894.035
1986.16,890.994
1986.56,895.954
1986.96,895.964
1987.36,887.624
1987.76,901.133
1988.16,899.093
1988.56,901.053
1988.97,905.163
1989.37,902.272
1989.77,899.632
1990.17,890.542
1990.57,900.902
1990.97,894.411
1991.37,897.921
1991.77,900.031
1992.17,899.191
1992.58,902.5
1992.98,901.16
1993.38,898.77
1993.78,894.23
1994.18,901.839
1994.58,902.199
1994.98,895.409
1995.38,893.719
1995.78,903.728
1996.19,895.238
1996.58,894.348
1996.99,898.958
1997.39,895.167
1997.79,900.177
1998.19,897.337
1998.59,897.497
1998.99,895.907
1999.39,897.616
1999.79,899.526
2000.19,895.586
2000.59,893.946
2000.99,898.705
2001.39,894.115
2001.79,895.525
2002.19,903.034
2002.59,896.894
2002.99,898.954
2003.4,894.414
2003.79,900.023
2004.2,893.333
2004.59,894.993
2005,896.403
2005.4,892.263
2005.8,891.022
2006.2,897.782
2006.6,897.442
2007,892.002
2007.4,898.411
2007.8,895.721
2008.2,898.681
2008.6,898.691
2009,895.15
2009.4,899.31
2009.8,901.57
2010.19,903.83
2010.6,902.089
2010.99,897.499
2011.4,903.459
2011.79,894.919
2012.19,891.428
2012.59,890.238
2012.99,900.748
2013.39,892.308
2013.79,888.167
2014.19,889.077
2014.59,896.287
2014.99,890.997
2015.39,897.656
2015.79,892.566
2016.19,894.376
2016.59,898.536
2016.99,894.695
2017.39,899.455
2017.79,899.915
2018.18,893.875
2018.59,892.484
2018.98,893.144
2019.38,895.554
2019.78,891.414
2020.18,898.573
2020.58,895.083
2020.98,898.343
2021.38,892.853
2021.78,899.212
2022.18,886.222
2022.57,899.482
2022.97,903.142
2023.37,892.451
2023.77,892.361
2024.17,896.321
2024.57,904.431
2024.97,896.491
2025.37,899.55
2025.77,898.51
2026.16,888.87
2026.56,892.58
2026.96,894.339
2027.36,904.099
2027.76,894.209
2028.16,889.019
2028.55,890.978
2028.95,895.588
2029.35,889.948
2029.75,891.258
2030.15,895.567
2030.55,901.727
2030.95,899.687
2031.34,890.297
2031.74,891.656
2032.14,895.766
2032.54,890.776
2032.94,889.936
2033.33,902.195
2033.73,897.405
2034.13,888.765
2034.53,892.475
2034.93,894.134
2035.32,898.694
2035.72,888.604
2036.12,892.564
2036.52,885.273
2036.92,889.133
2037.31,900.293
2037.71,889.103
2038.11,885.363
2038.51,896.022
2038.9,895.332
2039.3,896.342
2039.7,893.101
2040.1,894.711
2040.5,883.471
2040.89,887.731
2041.29,890.941
2041.69,895
2042.08,893.01
2042.48,893.62
2042.88,892.629
2043.28,894.739
2043.67,894.049
2044.07,896.459
2044.47,891.319
2044.87,896.778
2045.26,885.388
2045.66,888.848
2046.06,881.058
2046.46,883.467
2046.85,890.127
2047.25,896.887
2047.65,887.647
2048.04,896.206
2048.44,896.716
2048.84,891.526
2049.23,889.436
2049.63,888.645
2050.03,883.755
2050.42,895.015
2050.82,892.675
2051.22,893.434
2051.62,886.244
2052.01,884.754
2052.41,884.264
2052.8,893.173
2053.2,887.883
2053.6,891.943
2053.99,892.603
2054.39,882.862
2054.79,897.372
2055.18,890.182
2055.58,885.442
2055.98,888.502
2056.37,889.461
2056.77,893.071
2057.17,890.181
2057.56,884.391
2057.96,891.6
2058.36,885.26
2058.75,883.62
2059.15,886.529
2059.54,886.439
2059.94,887.149
2060.34,886.709
2060.73,885.718
2061.13,883.428
2061.52,883.688
2061.92,888.998
2062.32,894.308
2062.71,891.567
2063.11,880.277
2063.5,883.137
2063.9,884.447
2064.3,881.356
2064.69,877.216
2065.09,881.226
2065.48,886.036
2065.88,885.095
2066.27,880.605
2066.67,875.965
2067.06,886.925
2067.46,874.534
2067.86,883.094
2068.25,875.904
2068.65,881.264
2069.04,883.423
2069.44,877.383
2069.83,890.393
2070.23,876.203
2070.62,880.612
2071.02,887.972
2071.42,881.582
2071.81,885.642
2072.21,880.101
2072.6,887.461
2073,882.171
2073.39,883.181
2073.79,869.89
2074.18,878.6
2074.58,879.66
2074.97,886.47
2075.37,876.779
2075.76,879.539
2076.16,880.099
2076.55,879.759
2076.95,889.968
2077.34,875.528
2077.74,873.538
2078.13,881.848
2078.52,884.308
2078.92,877.117
2079.31,868.727
2079.71,876.887
2080.1,882.847
2080.5,878.456
2080.89,870.566
2081.29,882.826
2081.68,876.935
2082.08,883.595
2082.47,876.955
2082.87,878.065
2083.26,880.625
2083.66,876.784
2084.05,880.044
2084.44,878.604
2084.84,877.014
2085.23,881.523
2085.63,885.833
2086.02,884.143
2086.42,884.552
2086.81,887.662
2087.2,884.022
2087.6,879.782
2087.99,885.192
2088.39,872.801
2088.78,876.411
2089.17,880.271
2089.57,879.581
2089.96,882.541
2090.36,884.95
2090.75,872.81
2091.14,875.57
2091.54,887.079
2091.93,880.539
2092.32,886.799
2092.72,877.909
2093.11,877.119
2093.51,882.378
2093.9,879.588
2094.29,883.848
2094.69,880.208
2095.08,874.617
2095.47,878.127
2095.87,882.737
2096.26,874.047
2096.65,880.406
2097.05,875.216
2097.44,881.126
2097.83,879.385
2098.23,876.295
2098.62,885.655
2099.01,877.165
2099.41,881.174
2099.8,881.184
2100.19,879.444
2100.59,876.654
2100.98,880.264
2101.37,870.173
2101.77,877.433
2102.16,869.043
2102.55,872.653
2102.94,878.012
2103.34,877.772
2103.73,872.832
2104.12,873.892
2104.52,869.651
2104.91,870.261
2105.3,871.821
2105.69,869.731
2106.09,864.94
2106.48,880.3
2106.87,874.06
2107.27,867.27
2107.66,878.629
2108.05,876.239
2108.44,881.999
2108.84,874.009
2109.23,880.568
2109.62,871.278
2110.01,871.288
2110.41,871.348
2110.8,874.307
2111.19,875.367
2111.58,871.327
2111.98,873.587
2112.37,878.646
2112.76,877.006
2113.15,873.116
2113.54,879.976
2113.94,884.635
2114.33,877.845
2114.72,874.505
2115.11,878.015
2115.5,877.625
2115.9,873.834
2116.29,877.044
2116.68,873.904
2117.07,870.213
2117.46,872.523
2117.86,874.783
2118.25,871.543
2118.64,878.503
2119.03,882.862
2119.42,876.272
2119.81,865.382
2120.21,874.941
2120.6,873.151
2120.99,869.861
2121.38,875.971
2121.77,874.481
2122.16,871.84
2122.56,882.4
2122.95,871.96
2123.34,872.37
2123.73,869.629
2124.12,868.189
2124.51,863.449
2124.9,862.259
2125.3,862.868
2125.69,862.128
2126.08,867.888
2126.47,864.898
2126.86,871.907
2127.25,871.317
2127.64,870.177
2128.03,874.637
2128.43,861.646
2128.82,865.906
2129.21,876.266
2129.6,873.776
2129.99,868.035
2130.38,871.645
2130.77,870.055
2131.16,868.115
2131.55,877.924
2131.94,868.084
2132.33,867.944
2132.73,868.854
2133.12,870.113
2133.51,871.723
2133.9,866.433
2134.29,871.993
2134.68,871.003
2135.07,866.912
2135.46,868.572
2135.85,870.732
2136.24,866.042
2136.63,866.501
2137.02,871.411
2137.41,865.271
2137.8,865.381
2138.19,870.24
2138.58,867.564
2138.97,869.041
2139.36,881.471
2139.75,864.956
2140.14,870.549
2140.54,864.339
2140.92,869.481
2141.32,871.567
2141.7,869.487
2142.1,872.076
2142.49,872.507
2142.88,869.168
2143.27,867.463
2143.65,862.715
2144.05,870.333
2144.43,873.582
2144.83,871.279
2145.21,868.728
2145.6,867.559
2145.99,867.57
2146.38,870.702
2146.77,867.757
2147.16,868.328
2147.55,872.554
2147.94,866.822
2148.33,871.001
2148.72,874.225
2149.11,868.895
2149.5,871.319
2149.89,871.976
2150.28,872.479
2150.67,868.226
2151.06,871.524
2151.45,871.165
2151.84,869.256
2152.23,866.522
2152.62,871.446
2153.01,869.914
2153.39,871.847
2153.78,871.744
2154.17,872.113
2154.56,868.549
2154.95,867.226
2155.34,867.124
2155.73,873.339
2156.12,868.44
2156.51,868.473
2156.9,865.212
2157.29,867.062
2157.67,866.669
2158.06,866.656
2158.45,866.615
2158.84,870.365
2159.23,866.251
2159.62,866.219
2160.01,871.656
2160.4,870.332
2160.78,869.113
2161.17,865.697
2161.56,871.124
2161.95,867.05
2162.34,866.395
2162.73,866.672
2163.12,870.134
2163.5,866.387
2163.89,866.923
2164.28,871.783
2164.67,861.098
2165.06,867.018
2165.45,864.834
2165.83,863.34
2166.22,866.685
2166.61,864.569
2167,867.822
2167.39,865.055
2167.78,866.623
2168.16,866.586
2168.55,868.129
2168.94,864.743
2169.33,865.741
2169.72,867.652
2170.1,867.685
2170.49,864.035
2170.88,863.444
2171.27,869.195
2171.66,871.098
2172.04,868.217
2172.43,865.271
2172.82,865.548
2173.21,869.495
2173.59,870.865
2173.98,867.018
2174.37,867.11
2174.76,864.464
2175.15,864.94
2175.53,866.33
2175.92,863.83
2176.31,862.149
2176.7,864.158
2177.08,864.405
2177.47,864.033
2177.86,867.935
2178.14,863.527
2178.53,864.05
2178.92,863.422
2179.32,863.095
2179.71,861.867
2180.1,866.04
2180.49,864.563
2180.89,863.985
2181.28,862.708
2181.67,861.43
2182.06,867.503
2182.45,855.125
2182.85,862.598
2183.24,863.771
2183.63,861.593
2184.02,864.116
2184.41,859.538
2184.81,864.011
2185.2,867.983
2185.59,867.356
2185.98,857.028
2186.37,867.551
2186.77,861.074
2187.16,862.496
2187.55,864.169
2187.94,865.741
2188.33,859.764
2188.72,862.286
2189.12,861.659
2189.51,854.282
2189.9,867.504
2190.29,862.877
2190.68,858.099
2191.08,857.272
2191.47,863.295
2191.86,859.467
2192.25,861.29
2192.64,860.712
2193.03,864.635
2193.42,862.757
2193.81,854.88
2194.21,857.052
2194.6,864.075
2194.99,860.448
2195.38,857.72
2195.77,857.993
2196.16,862.815
2196.55,855.788
2196.94,859.31
2197.34,854.883
2197.73,864.906
2198.12,850.978
2198.51,858.901
2198.9,852.123
2199.29,859.496
2199.68,856.568
2200.07,856.241
2200.46,860.214
2200.85,858.386
2201.24,858.208
2201.64,859.331
2202.02,860.204
2202.42,851.026
2202.81,850.999
2203.2,852.372
2203.59,858.544
2203.98,859.016
2204.37,856.489
2204.76,859.212
2205.15,851.534
2205.54,852.307
2205.93,853.779
2206.32,856.352
2206.71,849.574
2207.1,850.047
2207.49,855.32
2207.88,860.292
2208.27,851.365
2208.66,852.637
2209.05,851.51
2209.44,844.332
2209.83,847.955
2210.22,852.578
2210.61,851.6
2211,854.073
2211.39,852.245
2211.78,850.368
2212.17,859.54
2212.56,851.213
2212.95,848.736
2213.34,857.858
2213.73,845.231
2214.12,853.803
2214.51,846.876
2214.9,846.948
2215.29,844.171
2215.68,847.893
2216.07,840.966
2216.46,842.589
2216.85,846.361
2217.24,852.584
2217.63,853.806
2218.02,848.779
2218.41,848.651
2218.8,851.274
2219.19,849.447
2219.58,843.919
2219.97,843.542
2220.36,851.714
2220.75,853.187
2221.14,847.51
2221.52,843.082
2221.91,846.105
2222.3,840.977
2222.69,849.25
2223.08,842.422
2223.47,850.945
2223.86,852.867
2224.25,842.19
2224.64,849.263
2225.03,847.035
2225.42,841.658
2225.8,840.63
2226.19,844.403
2226.58,839.675
2226.97,846.198
2227.36,832.17
2227.75,842.343
2228.14,848.966
2228.53,847.738
2228.92,841.761
2229.3,839.283
2229.69,839.106
2230.08,840.978
2230.47,836.401
2230.86,837.873
2231.25,831.046
2231.64,835.419
2232.03,839.041
2232.41,836.114
2232.8,831.237
2233.19,844.959
2233.58,846.482
2233.97,842.104
2234.36,842.277
2234.74,837.349
2235.13,831.772
2235.52,835.144
2235.91,835.467
2236.3,837.989
2236.69,837.962
2237.07,838.135
2237.46,842.007
2237.85,838.93
2238.24,834.152
2238.63,837.325
2239.01,836.347
2239.4,842.82
2239.79,831.943
2240.18,838.765
2240.57,836.688
2240.95,840.61
2241.34,827.833
2241.73,836.705
2242.12,827.978
2242.5,830.5
2242.89,836.373
2243.28,828.346
2243.67,828.468
2244.06,826.491
2244.44,832.713
2244.83,836.286
2245.22,833.258
2245.61,831.231
2245.99,833.054
2246.38,832.726
2246.77,840.349
2247.16,826.171
2247.54,833.944
2247.93,830.716
2248.32,834.539
2248.71,834.312
2249.09,828.984
2249.48,824.857
2249.87,833.779
2250.26,825.802
2250.64,822.224
2251.03,825.047
2251.42,824.72
2251.8,832.492
2252.19,826.115
2252.58,823.587
2252.96,835.66
2253.35,834.532
2253.74,828.955
2254.13,830.427
2254.51,831.85
2254.9,821.073
2255.29,826.345
2255.67,823.668
2256.06,815.49
2256.45,826.613
2256.83,823.085
2257.22,827.058
2257.61,828.931
2257.99,829.903
2258.38,827.526
2258.77,822.598
2259.15,831.921
2259.54,833.893
2259.93,835.266
2260.31,820.739
2260.7,827.461
2261.09,820.184
2261.47,815.606
2261.86,822.879
2262.24,824.151
2262.63,813.524
2263.02,824.346
2263.4,828.219
2263.79,820.092
2264.18,824.114
2264.56,826.287
2264.95,832.059
2265.34,830.882
2265.72,818.355
2266.11,826.827
2266.49,823.9
2266.88,821.072
2267.27,821.445
2267.65,818.667
2268.04,826.09
2268.42,824.712
2268.81,820.435
2269.19,826.258
2269.58,825.13
2269.97,823.053
2270.35,817.475
2270.74,824.698
2271.12,823.77
2271.51,824.393
2271.89,826.815
2272.28,827.288
2272.67,820.211
2273.05,814.333
2273.44,820.506
2273.82,833.628
2274.21,819.401
2274.59,822.373
2274.98,825.846
2275.36,822.319
2275.75,819.041
2276.14,813.864
2276.52,818.986
2276.91,826.959
2277.29,819.181
2277.68,822.204
2278.06,815.376
2278.45,822.749
2278.83,821.072
2279.22,826.644
2279.6,825.667
2279.99,814.239
2280.37,821.112
2280.76,813.284
2281.14,817.607
2281.53,818.98
2281.91,812.602
2282.3,815.125
2282.68,818.947
2283.07,818.37
2283.45,815.393
2283.84,823.165
2284.22,824.237
2284.61,817.76
2284.99,824.933
2285.38,818.205
2285.76,815.978
2286.15,818.1
2286.53,815.123
2286.91,819.545
2287.3,814.918
2287.68,814.141
2288.07,820.563
2288.45,815.236
2288.84,798.458
2289.22,812.931
2289.61,818.304
2289.99,811.076
2290.37,819.749
2290.76,816.021
2291.14,812.644
2291.53,811.066
2291.91,816.739
2292.3,813.661
2292.68,816.034
2293.06,819.857
2293.45,815.929
2293.83,818.352
2294.22,816.224
2294.6,812.397
2294.98,815.92
2295.37,821.092
2295.75,804.764
2296.14,804.487
2296.52,818.76
2296.9,817.032
2297.29,814.205
2297.67,817.527
2298.05,809.45
2298.44,815.023
2298.82,809.445
2299.21,814.118
2299.59,819.74
2299.97,810.163
2300.36,809.735
2300.74,812.558
2301.12,807.18
2301.51,810.903
2301.89,813.426
2302.27,814.498
2302.66,811.321
2303.04,814.093
2303.42,807.216
2303.81,815.938
2304.19,804.561
2304.57,809.834
2304.96,819.506
2305.34,812.329
2305.73,818.401
2306.11,817.624
2306.49,808.646
2306.88,819.519
2307.26,818.441
2307.64,816.014
2308.02,808.787
2308.41,808.009
2308.79,816.932
2309.17,811.654
2309.56,811.777
2309.94,812.799
2310.32,806.672
2310.7,810.495
2311.09,810.817
2311.47,806.34
2311.85,810.312
2312.24,812.135
2312.62,814.757
2313,810.93
2313.38,818.303
2313.77,809.775
2314.15,811.948
2314.53,816.27
2314.91,808.043
2315.3,813.915
2315.68,812.888
2316.06,812.01
2316.44,818.733
2316.83,815.256
2317.21,810.978
2317.59,818.301
2317.97,812.123
2318.36,814.096
2318.74,814.568
2319.12,815.641
2319.5,801.964
2319.88,816.686
2320.27,812.709
2320.65,812.181
2321.03,812.754
2321.41,818.927
2321.79,810.149
2322.18,815.672
2322.56,816.844
2322.94,813.717
2323.32,814.889
2323.71,811.162
2324.09,803.084
2324.47,813.207
2324.85,820.03
2325.23,810.902
2325.61,815.575
2325.99,812.397
2326.38,811.17
2326.76,815.692
2327.14,813.715
2327.52,808.238
2327.9,817.71
2328.29,811.233
2328.67,809.205
2329.05,824.378
2329.43,819.3
2329.81,808.173
2330.19,812.145
2330.57,810.518
2330.96,810.091
2331.34,813.713
2331.72,803.736
2332.1,806.258
2332.48,811.581
2332.86,810.403
2333.24,810.776
2333.62,810.298
2334.01,802.921
2334.39,808.594
2334.77,808.816
2335.15,812.089
2335.53,813.861
2335.91,815.184
2336.29,813.006
2336.67,808.679
2337.05,815.752
2337.44,809.474
2337.82,808.247
2338.2,808.769
2338.58,808.042
2338.96,811.114
2339.34,810.287
2339.72,806.56
2340.1,802.332
2340.48,817.255
2340.86,803.077
2341.24,804.1
2341.62,808.322
2342,809.745
2342.38,810.717
2342.76,815.29
2343.15,810.613
2343.53,810.785
2343.91,807.608
2344.29,805.33
2344.67,799.503
2345.05,813.175
2345.43,803.148
2345.81,812.421
2346.19,811.943
2346.57,811.616
2346.95,812.138
2347.33,815.011
2347.71,808.133
2348.09,801.056
2348.47,812.479
2348.85,815.601
2349.23,808.424
2349.61,804.996
2349.99,805.369
2350.37,813.391
2350.75,807.014
2351.13,811.187
2351.51,805.259
2351.89,808.432
2352.27,802.654
2352.65,809.377
2353.03,814.599
2353.41,815.122
2353.79,809.944
2354.17,812.317
2354.55,815.34
2354.93,813.012
2355.31,806.735
2355.69,800.057
2356.07,803.48
2356.44,811.552
2356.83,805.125
2357.21,805.047
2357.58,808.92
2357.96,804.643
2358.34,808.615
2358.72,812.638
2359.1,811.96
2359.48,808.783
2359.86,815.706
2360.24,806.328
2360.62,810.201
2361,810.923
2361.38,809.446
2361.76,809.468
2362.14,811.091
2362.52,810.514
2362.89,802.936
2363.27,814.709
2363.65,803.781
2364.03,811.054
2364.41,816.526
2364.79,810.499
2365.17,812.571
2365.55,813.794
2365.93,808.217
2366.3,804.039
2366.68,819.062
2367.06,815.984
2367.44,808.257
2367.82,812.829
2368.2,807.052
2368.58,805.974
2368.95,816.747
2369.33,814.92
2369.71,806.142
2370.09,811.065
2370.47,804.537
2370.85,808.91
2371.23,818.333
2371.6,809.005
2371.98,810.128
2372.36,808.95
2372.74,811.323
2373.12,813.395
2373.5,807.468
2373.87,816.391
2374.25,808.713
2374.63,804.736
2375.01,811.158
2375.39,795.831
2375.77,810.453
2376.14,805.976
2376.52,808.898
2376.9,810.421
2377.28,808.293
2377.66,809.966
2378.03,814.139
2378.41,805.911
2378.79,807.584
2379.17,814.756
2379.54,806.829
2379.92,806.702
2380.3,809.074
2380.68,807.446
2381.06,816.819
2381.43,810.692
2381.81,805.564
2382.19,810.387
2382.57,809.309
2382.94,809.682
2383.32,812.855
2383.7,810.377
2384.08,807.7
2384.45,802.872
2384.83,809.845
2385.21,802.317
2385.59,813.89
2385.96,808.462
2386.34,810.985
2386.72,814.208
2387.1,807.13
2387.47,817.403
2387.85,813.525
2388.23,812.823
2388.6,811.12
2388.98,804.818
2389.36,811.616
2389.74,798.863
2390.11,807.011
2390.49,814.183
2390.87,797.456
2391.24,810.428
2391.62,806.901
2392,807.973
2392.38,807.746
2392.75,813.069
2393.13,803.291
2393.51,810.414
2393.88,808.286
2394.26,801.259
2394.64,807.781
2395.01,814.504
2395.39,808.827
2395.77,809.849
2396.14,810.022
2396.52,808.594
2396.9,812.317
2397.27,808.99
2397.65,808.462
2398.03,804.985
2398.4,812.657
2398.78,806.68
2399.16,812.002
2399.53,808.875
2399.91,809.697
2400.28,809.52
2400.66,812.792
2401.04,804.915
2401.41,805.588
2401.79,813.56
2402.17,797.633
2402.54,810.805
2402.92,798.628
2403.29,811.001
2403.67,810.723
2404.05,808.896
2404.42,811.018
2404.8,813.291
2405.18,807.263
2405.55,810.786
2405.93,804.909
2406.3,806.031
2406.68,809.804
2407.05,801.426
2407.43,818.249
2407.81,805.821
2408.18,806.994
2408.56,806.316
2408.93,809.789
2409.31,808.712
2409.68,811.234
2410.06,805.307
2410.44,800.229
2410.81,814.752
2411.19,811.324
2411.56,806.247
2411.94,814.52
2412.31,806.742
2412.69,811.115
2413.06,807.637
2413.44,801.56
2413.82,800.432
2414.19,809.655
2414.57,809.577
2414.94,809.85
2415.32,807.323
2415.69,808.845
2416.07,811.118
2416.44,808.34
2416.82,806.963
2417.19,801.285
2417.57,809.908
2417.94,806.831
2418.32,806.603
2418.69,807.851
2419.07,809.098
2419.44,808.171
2419.82,806.993
2420.19,800.716
2420.57,806.638
2420.94,807.911
2421.32,808.784
2421.69,801.056
2422.07,805.329
2422.44,801.201
2422.81,799.974
2423.19,807.697
2423.56,797.269
2423.94,806.542
2424.31,813.164
2424.69,804.037
2425.06,804.609
2425.44,798.232
2425.81,797.154
2426.19,796.577
2426.56,809.2
2426.93,813.322
2427.31,807.495
2427.68,801.167
2428.06,807.74
2428.43,799.362
2428.81,801.385
2429.18,807.908
2429.56,801.88
2429.93,800.753
2430.3,812.825
2430.68,803.398
2431.05,809.77
2431.43,799.993
2431.8,806.266
2432.17,810.038
2432.55,801.211
2432.92,800.533
2433.3,820.706
2433.67,801.328
2434.04,800.951
2434.42,796.973
2434.79,805.296
2435.16,806.469
2435.54,805.241
2435.91,801.664
2436.29,805.686
2436.66,816.459
2437.03,808.531
2437.41,804.204
2437.78,804.127
2438.15,800.649
2438.53,802.522
2438.9,805.894
2439.28,808.117
2439.65,800.139
2440.02,805.412
2440.4,810.135
2440.77,800.607
2441.14,801.18
2441.51,809.002
2441.89,805.725
2442.26,800.247
2442.63,798.62
2443.01,804.042
2443.38,807.115
2443.75,798.738
2444.13,801.16
2444.5,804.883
2444.87,811.905
2445.25,804.428
2445.62,802.8
2445.99,805.323
2446.37,800.095
2446.74,806.968
2447.11,807.191
2447.49,804.263
2447.86,798.286
2448.23,801.958
2448.6,798.281
2448.98,806.754
2449.35,805.576
2449.72,797.749
2450.09,801.721
2450.47,803.794
2450.84,803.216
2451.21,798.789
2451.58,803.261
2451.96,796.334
2452.33,798.957
2452.7,809.979
2453.07,797.602
2453.45,801.524
2453.82,804.597
2454.19,803.369
2454.56,796.242
2454.94,806.065
2455.31,804.037
2455.68,797.81
2456.05,805.332
2456.43,799.505
2456.8,798.878
2457.17,803.6
2457.54,796.622
2457.92,805.745
2458.29,810.968
2458.66,803.74
2459.03,799.863
2459.4,798.635
2459.78,804.408
2460.15,795.581
2460.52,801.803
2460.89,804.475
2461.26,795.048
2461.64,808.421
2462.01,801.393
2462.38,802.416
2462.75,799.088
2463.12,809.011
2463.49,803.484
2463.87,800.606
2464.24,801.879
2464.61,800.951
2464.98,801.424
2465.35,801.896
2465.72,802.369
2466.09,812.592
2466.47,805.114
2466.84,799.987
2467.21,801.309
2467.58,804.132
2467.95,803.554
2468.32,806.827
2468.7,796.449
2469.07,791.922
2469.44,797.595
2469.81,800.367
2470.18,802.94
2470.55,803.912
2470.92,806.835
2471.29,799.857
2471.67,800.43
2472.04,800.903
2472.41,800.025
2472.78,805.798
2473.15,805.42
2473.52,804.543
2473.89,800.015
2474.26,801.938
2474.63,803.861
2475,806.583
2475.38,800.706
2475.75,803.528
2476.12,798.751
2476.49,806.773
2476.86,802.196
2477.23,803.268
2477.6,803.041
2477.97,806.814
2478.34,798.786
2478.71,800.709
2479.08,808.981
2479.45,797.654
2479.82,805.926
2480.19,803.299
2480.56,797.722
2480.93,809.194
2481.3,802.017
2481.67,794.689
2482.04,797.762
2482.42,800.384
2482.79,805.407
2483.16,800.68
2483.53,806.602
2483.9,803.975
2484.27,799.147
2484.64,804.27
2485.01,796.742
2485.38,801.365
2485.75,807.188
2486.12,803.11
2486.49,800.383
2486.86,805.205
2487.23,799.978
2487.6,796.75
2487.97,799.073
2488.34,801.745
2488.71,800.168
2489.08,803.141
2489.45,801.513
2489.82,801.221
2490.19,799.745
2490.56,803.07
2490.93,801.152
2491.3,798.899
2491.67,806.954
2492.04,800.703
2492.41,808.503
2492.77,801.875
2493.14,801.413
2493.51,801.907
2493.88,802.949
2494.25,807.061
2494.62,799.581
2494.99,799.205
2495.36,803.861
2495.73,798.893
2496.1,798.535
2496.47,796.017
2496.84,797.307
2497.21,800.348
2497.58,805.586
2497.95,802.64
2498.32,799.66
2498.68,801.71
2499.05,805.673
2499.42,802.064
2499.79,799.543
2500.16,801.651
2500.53,799.913
2500.9,800.723
2501.27,804.917
2501.64,805.675
2502.01,799.461
2502.37,804.511
2502.74,800.49
2503.11,801.636
2503.48,799.734
2503.85,801.467
2504.22,795.982
2504.59,797.236
2504.96,797.649
2505.32,799.432
2505.69,801.292
2506.06,803.512
2506.43,799.815
2506.8,799.793
2507.17,800.357
2507.54,801.123
2507.9,801.798
2508.27,796.851
2508.64,799.274
2509.01,799.749
2509.38,800.561
2509.75,797.314
2510.11,799.515
2510.48,801.157
2510.85,797.675
2511.22,798.598
2511.59,801.687
2511.96,804.503
2512.32,796.207
2512.69,800.861
2513.06,802.08
2513.43,795.508
2513.8,798.792
2514.16,798.082
2514.53,801.346
2514.9,802.895
2515.27,798.971
2515.64,800.078
2516,800.102
2516.37,800.4
2516.74,797.696
2517.11,801.864
2517.47,803.487
2517.84,799.212
2518.21,802.378
2518.58,797.422
2518.95,797.586
2519.31,800.147
2519.68,802.501
2520.05,798.82
2520.42,798.196
2520.78,797.814
2521.15,803.476
2521.52,795.475
2521.89,803.645
2522.25,796.014
2522.62,801.672
2522.99,793.777
2523.36,800.461
2523.72,794.244
2524.09,792.635
2524.46,794.272
2524.82,795.268
2525.19,797.84
2525.56,790.899
2525.93,799.955
2526.29,799.7
2526.66,797.886
2527.03,801.955
2527.39,795.003
2527.76,794.071
2528.13,799.029
2528.5,799.058
2528.59,798.573
2528.96,793.397
2529.33,793.221
2529.71,803.896
2530.08,799.02
2530.45,795.194
2530.82,799.018
2531.19,785.592
2531.57,791.966
2531.94,789.391
2532.31,797.815
2532.68,796.789
2533.05,798.413
2533.42,791.787
2533.8,798.161
2534.17,803.236
2534.54,799.06
2534.91,803.984
2535.28,796.908
2535.65,796.532
2536.02,790.207
2536.39,802.981
2536.77,804.105
2537.14,797.879
2537.51,800.403
2537.88,800.078
2538.25,793.952
2538.62,793.126
2538.99,797.7
2539.36,787.874
2539.74,794.998
2540.11,805.423
2540.48,792.747
2540.85,798.821
2541.22,795.545
2541.59,796.169
2541.96,799.294
2542.33,797.868
2542.7,796.442
2543.07,799.416
2543.44,794.64
2543.81,805.814
2544.19,794.039
2544.56,798.213
2544.93,795.487
2545.3,796.711
2545.67,796.685
2546.04,801.659
2546.41,793.384
2546.78,795.208
2547.15,802.432
2547.52,799.856
2547.89,793.331
2548.26,799.905
2548.63,793.429
2549,790.753
2549.37,794.677
2549.74,797.501
2550.11,803.226
2550.48,797.45
2550.85,795.524
2551.22,804.348
2551.59,793.772
2551.96,795.796
2552.33,798.521
2552.71,794.745
2553.08,792.169
2553.45,791.393
2553.81,799.617
2554.18,791.392
2554.55,800.416
2554.93,786.54
2555.3,805.914
2555.67,799.838
2556.03,794.412
2556.4,801.137
2556.77,795.311
2557.14,796.835
2557.51,791.509
2557.88,791.383
2558.25,792.957
2558.62,796.182
2558.99,798.806
2559.36,799.68
2559.73,797.104
2560.1,794.328
2560.47,792.852
2560.84,794.127
2561.21,803.701
2561.58,797.575
2561.95,793.549
2562.32,793.873
2562.69,796.048
2563.06,797.772
2563.43,796.646
2563.8,794.97
2564.17,805.694
2564.54,791.619
2564.9,796.043
2565.27,790.817
2565.64,793.891
2566.01,790.515
2566.38,792.089
2566.75,797.164
2567.12,801.038
2567.49,798.412
2567.86,798.336
2568.23,799.81
2568.6,784.834
2568.96,792.109
2569.33,792.683
2569.7,795.407
2570.07,787.831
2570.44,797.856
2570.81,798.93
2571.18,796.154
2571.55,793.628
2571.92,791.752
2572.28,790.226
2572.65,795.201
2573.02,794.925
2573.39,794.949
2573.76,796.423
2574.13,797.897
2574.5,798.822
2574.86,791.446
2575.23,798.37
2575.6,791.394
2575.97,789.318
2576.34,789.742
2576.71,789.817
2577.07,796.591
2577.44,790.665
2577.81,787.089
2578.18,784.713
2578.55,793.337
2578.92,791.862
2579.28,792.786
2579.65,787.86
2580.02,794.684
2580.39,791.408
2580.76,792.433
2581.13,792.157
2581.49,795.681
2581.86,795.155
2582.23,793.279
2582.6,793.253
2582.97,785.728
2583.33,786.102
2583.7,791.426
2584.07,796.45
2584.44,792.224
2584.8,788.349
2585.17,790.673
2585.54,793.997
2585.91,793.021
2586.28,788.645
2586.64,788.069
2587.01,788.994
2587.38,796.918
2587.75,788.392
2588.11,792.316
2588.48,786.19
2588.85,795.714
2589.22,787.339
2589.58,792.563
2589.95,788.387
2590.32,788.861
2590.69,787.885
2591.05,799.11
2591.42,794.434
2591.79,796.008
2592.16,782.682
2592.52,785.106
2592.89,791.63
2593.26,791.005
2593.63,786.079
2593.99,787.953
2594.36,788.527
2594.73,784.851
2595.09,791.576
2595.46,796.8
2595.83,789.574
2596.19,796.898
2596.56,786.222
2596.93,789.297
2597.3,786.321
2597.66,792.745
2598.03,786.469
2598.4,789.143
2598.76,793.667
2599.13,789.492
2599.5,788.516
2599.86,781.79
2600.23,799.114
2600.6,788.338
2600.96,787.362
2601.33,787.537
2601.7,792.461
2602.06,791.635
2602.43,778.109
2602.8,789.683
2603.16,788.808
2603.53,786.882
2603.9,783.006
2604.26,792.78
2604.63,788.204
2605,783.179
2605.36,785.103
2605.73,785.827
2606.1,785.751
2606.46,783.275
2606.83,787.049
2607.19,780.024
2607.56,786.298
2607.93,788.372
2608.29,794.246
2608.66,787.92
2609.02,789.245
2609.39,791.019
2609.76,785.693
2610.12,789.067
2610.49,786.991
2610.85,787.715
2611.22,782.939
2611.59,789.264
2611.95,779.638
2612.32,781.612
2612.68,788.586
2613.05,787.261
2613.42,792.535
2613.78,787.309
2614.15,787.083
2614.51,785.907
2614.88,783.031
2615.24,785.156
2615.61,783.28
2615.98,785.554
2616.34,789.478
2616.71,776.602
2617.07,787.527
2617.44,786.051
2617.8,780.075
2618.17,783.449
2618.53,791.473
2618.9,791.347
2619.26,780.322
2619.63,785.646
2620,777.27
2620.36,780.594
2620.73,785.668
2621.09,784.542
2621.46,785.467
2621.82,785.441
2622.19,788.365
2622.55,785.889
2622.92,784.663
2623.28,786.988
2623.65,785.312
2624.01,784.386
2624.38,786.61
2624.74,785.784
2625.11,784.758
2625.47,786.583
2625.84,779.407
2626.2,784.531
2626.57,781.305
2626.93,787.829
2627.3,783.503
2627.66,782.828
2628.03,787.352
2628.39,779.226
2628.75,788.4
2629.12,782.924
2629.48,783.249
2629.85,780.873
2630.21,785.297
2630.58,777.471
2630.94,779.845
2631.31,778.87
2631.67,778.444
2632.04,767.468
2632.4,775.142
2632.76,776.916
2633.13,778.49
2633.49,783.415
2633.86,787.539
2634.22,779.113
2634.59,784.337
2634.95,779.711
2635.31,787.386
2635.68,784.66
2636.04,780.234
2636.41,773.258
2636.77,785.832
2637.14,775.206
2637.5,787.731
2637.86,787.305
2638.23,779.179
2638.59,782.703
2638.96,781.227
2639.32,788.502
2639.68,784.376
2640.05,785.45
2640.41,785.374
2640.77,778.648
2641.14,778.522
2641.5,787.297
2641.87,778.571
2642.23,785.395
2642.59,781.169
2642.96,783.343
2643.32,786.868
2643.68,782.092
2644.05,778.516
2644.41,780.64
2644.77,779.764
2645.14,773.888
2645.5,782.263
2645.87,781.737
2646.23,786.811
2646.59,784.135
2646.96,777.859
2647.32,788.884
2647.68,789.158
2648.05,784.782
2648.41,788.056
2648.77,781.38
2649.14,784.755
2649.5,785.979
2649.86,778.253
2650.23,785.427
2650.59,779.351
2650.95,783.475
2651.31,777.05
2651.68,776.324
2652.04,785.198
2652.4,786.422
2652.77,778.246
2653.13,782.87
2653.49,785.445
2653.85,785.519
2654.22,786.943
2654.58,782.417
2654.94,787.841
2655.31,797.365
2655.67,784.99
2656.03,793.714
2656.4,782.488
2656.76,786.612
2657.12,782.536
2657.48,789.061
2657.84,788.285
2658.21,776.409
2658.57,779.433
2658.93,782.257
2659.3,783.932
2659.66,782.306
2660.02,787.03
2660.38,781.554
2660.74,784.128
2661.11,785.402
2661.47,786.077
2661.83,786.951
2662.2,785.375
2662.56,783.349
2662.92,783.523
2663.28,786.498
2663.64,785.622
2664.01,777.546
2664.37,780.17
2664.73,784.744
2665.09,791.668
2665.45,786.193
2665.82,781.667
2666.18,784.291
2666.54,784.615
2666.9,779.289
2667.26,784.114
2667.63,788.488
2667.99,781.212
2668.35,788.486
2668.71,788.71
2669.07,787.534
2669.44,777.659
2669.8,787.233
2670.16,786.907
2670.52,779.431
2670.88,782.955
2671.24,781.58
2671.6,790.954
2671.97,776.578
2672.33,782.602
2672.69,783.276
2673.05,782.7
2673.41,783.524
2673.77,784.899
2674.14,787.773
2674.5,787.497
2674.86,782.421
2675.22,787.246
2675.58,784.72
2675.94,787.144
2676.3,792.768
2676.67,791.792
2677.03,773.666
2677.39,783.591
2677.75,786.265
2678.11,781.989
2678.47,783.463
2678.83,783.037
2679.19,777.561
2679.55,785.686
2679.92,782.06
2680.28,786.284
2680.64,780.408
2681,784.632
2681.36,784.706
2681.72,783.581
2682.08,781.355
2682.44,782.979
2682.8,781.103
2683.16,774.077
2683.52,786.452
2683.88,788.276
2684.24,781.15
2684.61,784.674
2684.97,783.498
2685.33,784.122
2685.69,780.697
2686.05,788.021
2686.41,782.595
2686.77,780.619
2687.13,785.043
2687.49,787.068
2687.85,788.092
2688.21,784.266
2688.57,788.59
2688.93,793.614
2689.29,790.339
2689.65,781.763
2690.01,780.487
2690.37,781.161
2690.73,778.935
2691.09,780.159
2691.45,781.784
2691.81,786.608
2692.17,794.382
2692.53,778.856
2692.89,782.83
2693.25,781.505
2693.61,785.279
2693.97,781.753
2694.33,789.977
2694.69,781.751
2695.05,788.775
2695.41,783.6
2695.77,779.574
2696.13,783.698
2696.49,785.872
2696.85,793.296
2697.21,784.071
2697.57,785.845
2697.93,786.669
2698.29,781.893
2698.65,786.567
2699.01,784.741
2699.37,785.066
2699.73,784.49
2700.09,788.314
2700.45,776.538
2700.81,785.862
2701.17,796.286
2701.53,788.311
2701.89,785.585
2702.25,793.509
2702.61,784.783
2702.97,787.507
2703.33,781.882
2703.68,789.256
2704.04,780.93
2704.4,779.004
2704.76,789.178
2705.12,786.103
2705.48,783.627
2705.84,788.401
2706.2,782.025
2706.56,778.799
2706.92,786.657
2707.28,785.164
2707.63,779.672
2707.99,783.029
2708.35,789.287
2708.71,782.994
2709.07,782.918
2709.43,787.193
2709.79,789.717
2710.15,783.191
2710.51,784.015
2710.87,784.889
2711.22,784.764
2711.58,782.638
2711.94,774.512
2712.3,786.286
2712.66,792.61
2713.02,781.334
2713.38,780.709
2713.74,779.883
2714.09,786.207
2714.45,783.081
2714.81,777.505
2715.17,778.53
2715.53,789.104
2715.89,785.628
2716.24,777.802
2716.6,789.876
2716.96,784.301
2717.32,779.825
2717.68,776.899
2718.04,785.073
2718.39,775.697
2718.75,783.071
2719.11,779.246
2719.47,789.92
2719.83,780.594
2720.19,779.568
2720.54,779.392
2720.9,778.167
2721.26,781.241
2721.62,778.915
2721.97,781.589
2722.33,785.163
2722.69,789.087
2723.05,782.162
2723.41,777.886
2723.76,791.26
2724.12,788.434
2724.48,780.458
2724.84,782.782
2725.2,781.157
2725.55,781.481
2725.91,782.405
2726.27,775.379
2726.63,786.053
2726.98,786.628
2727.34,779.902
2727.7,778.876
2728.06,784.65
2728.41,782.274
2728.77,780.798
2729.13,785.473
2729.49,777.047
2729.84,784.571
2730.2,781.995
2730.56,776.869
2730.92,789.644
2731.27,779.068
2731.63,777.542
2731.99,779.466
2732.35,781.34
2732.7,782.115
2733.06,779.689
2733.42,779.013
2733.77,783.687
2734.13,782.061
2734.49,783.085
2734.84,784.559
2735.2,776.184
2735.56,776.708
2735.92,778.932
2736.27,787.306
2736.63,784.58
2736.99,779.305
2737.34,787.779
2737.7,781.903
2738.06,782.377
2738.41,777.001
2738.77,785.425
2739.13,769.95
2739.49,779.774
2739.84,780.398
2740.2,784.272
2740.56,777.846
2740.91,771.621
2741.27,782.395
2741.63,778.269
2741.98,779.343
2742.34,771.817
2742.69,777.842
2743.05,776.766
2743.41,780.09
2743.76,778.514
2744.12,780.288
2744.48,778.712
2744.83,777.687
2745.19,778.961
2745.55,772.185
2745.9,784.059
2746.26,777.583
2746.61,777.208
2746.97,775.182
2747.33,766.756
2747.68,779.43
2748.04,773.704
2748.39,778.428
2748.75,781.353
2749.11,780.027
2749.46,775.301
2749.82,774.175
2750.18,774.999
2750.53,778.474
2750.89,782.748
2751.24,777.022
2751.6,778.296
2751.95,777.82
2752.31,777.944
2752.67,774.769
2753.02,776.643
2753.38,779.017
2753.73,776.741
2754.09,775.765
2754.44,777.839
2754.8,774.814
2755.16,773.988
2755.51,773.162
2755.87,782.403
2756.22,773.944
2756.58,771.685
2756.93,777.776
2757.29,775.916
2757.64,772.257
2758,773.331
2758.36,772.506
2758.71,776.68
2759.06,778.604
2759.42,772.878
2759.78,771.502
2760.13,773.576
2760.49,773.051
2760.84,765.025
2761.2,769.899
2761.55,779.873
2761.91,770.997
2762.26,772.871
2762.62,775.696
2762.97,774.77
2763.33,777.644
2763.68,767.518
2764.04,781.792
2764.39,775.567
2764.75,773.641
2765.1,775.715
2765.46,770.539
2765.81,778.813
2766.17,780.837
2766.52,773.812
2766.88,772.636
2767.23,776.56
2767.59,772.184
2767.94,770.608
2768.29,768.533
2768.65,775.607
2769,763.681
2769.36,773.655
2769.71,765.979
2770.07,777.253
2770.42,779.428
2770.78,768.702
2771.13,773.776
2771.48,771.6
2771.84,771.824
2772.19,768.599
2772.55,772.873
2772.9,774.647
2773.26,777.671
2773.61,763.545
2773.97,772.169
2774.32,774.644
2774.67,777.868
2775.03,776.042
2775.38,780.916
2775.74,772.09
2776.09,769.965
2776.44,767.939
2776.8,772.563
2777.15,772.187
2777.51,771.811
2777.86,770.385
2778.21,770.66
2778.57,772.434
2778.92,775.258
2779.28,779.482
2779.63,773.456
2779.98,771.431
2780.34,776.605
2780.69,765.329
2781.04,762.503
2781.4,760.727
2781.75,776.152
2782.11,778.826
2782.46,773.25
2782.81,775.424
2783.17,772.148
2783.52,776.772
2783.87,772.497
2784.23,775.571
2784.58,767.695
2784.93,770.269
2785.29,771.893
2785.64,775.617
2785.99,772.992
2786.35,771.316
2786.7,771.84
2787.05,770.964
2787.41,768.388
2787.76,772.713
2788.11,772.337
2788.47,774.661
2788.82,772.135
2789.17,765.159
2789.53,767.933
2789.88,768.408
2790.23,771.082
2790.58,774.506
2790.94,768.98
2791.29,766.805
2791.64,774.378
2792,775.053
2792.35,772.377
2792.7,768.751
2793.06,769.125
2793.41,770.299
2793.76,773.674
2794.11,772.698
2794.47,769.522
2794.82,779.296
2795.17,771.47
2795.52,770.195
2795.88,770.869
2796.23,772.593
2796.58,759.517
2796.93,770.491
2797.29,777.265
2797.64,772.09
2797.99,770.314
2798.35,776.638
2798.7,768.162
2799.05,773.636
2799.4,767.561
2799.76,777.735
2800.11,774.459
2800.46,772.333
2800.81,775.307
2801.16,770.131
2801.52,768.956
2801.87,775.38
2802.22,772.104
2802.57,765.878
2802.92,771.352
2803.28,774.276
2803.63,773.601
2803.98,775.175
2804.33,768.799
2804.68,774.623
2805.04,766.047
2805.39,770.272
2805.74,775.846
2806.09,768.02
2806.45,771.494
2806.8,765.668
2807.15,769.442
2807.5,767.217
2807.85,769.741
2808.2,770.715
2808.56,767.239
2808.91,774.413
2809.26,768.638
2809.61,768.862
2809.96,777.436
2810.31,775.26
2810.67,775.584
2811.02,767.209
2811.37,766.083
2811.72,763.307
2812.07,775.881
2812.42,770.905
2812.77,768.779
2813.13,767.004
2813.48,769.228
2813.83,770.802
2814.18,766.526
2814.53,772.05
2814.88,776.425
2815.23,775.699
2815.58,769.323
2815.94,770.197
2816.29,769.421
2816.64,770.595
2816.99,769.57
2817.34,772.994
2817.69,772.018
2818.04,779.842
2818.39,771.966
2818.75,774.291
2819.1,770.665
2819.45,773.089
2819.8,768.563
2820.15,773.837
2820.5,772.261
2820.85,770.586
2821.2,777.16
2821.55,769.134
2821.9,763.308
2822.25,770.782
2822.6,771.709
2822.95,764.421
2823.31,769.808
2823.66,765.741
2824.01,771.179
2824.36,768.842
2824.71,773.562
2825.06,768.566
2825.41,768.756
2825.76,772.536
2826.11,772.706
2826.46,773.365
2826.81,771.799
2827.16,770.35
2827.51,774.03
2827.86,780.316
2828.21,769.153
2828.56,766.56
2828.91,769.578
2829.26,775.262
2829.61,768.6
2829.96,775.463
2830.31,772.727
2830.66,773.824
2831.01,773.611
2831.36,772.322
2831.71,775.873
2832.06,771.167
2832.41,775.642
2832.76,773.443
2833.11,775.098
2833.46,777.981
2833.81,769.821
2834.16,776.623
2834.51,775.817
2834.86,776.449
2835.21,779.318
2835.56,775.057
2835.91,776.581
2836.26,777.794
2836.61,778.088
2836.96,777.107
2837.31,781.101
2837.66,783.6
2838.01,782.568
2838.36,780.363
2838.71,781.148
2839.06,781.747
2839.41,781.669
2839.76,782.014
2840.11,785.043
2840.46,787.622
2840.81,792.758
2841.16,789.646
2841.5,788.899
2841.85,793.996
2842.2,794.257
2842.55,792.379
2842.9,801.036
2843.25,801.457
2843.6,801.936
2843.95,800.224
2844.3,797.486
2844.65,804.97
2845,810.479
2845.34,808.502
2845.69,812.863
2846.04,808.044
2846.39,807.415
2846.74,813.221
2847.09,813.407
2847.44,814.582
2847.79,818.005
2848.14,818.919
2848.49,821.79
2848.83,818.076
2849.18,818.341
2849.53,818.081
2849.88,819.141
2850.23,815.509
2850.58,818.036
2850.93,818.631
2851.28,815.516
2851.62,817.453
2851.97,813.547
2852.32,816.631
2852.67,815.741
2853.02,816.444
2853.37,807.877
2853.72,811.062
2854.06,812.698
2854.41,813.23
2854.76,813.524
2855.11,814.21
2855.46,814.324
2855.81,813.174
2856.15,812.204
2856.5,808.558
2856.85,810.942
2857.2,809.377
2857.55,809.653
2857.89,810.177
2858.24,809.659
2858.59,811.806
2858.94,808.633
2859.29,798.527
2859.3,798.042
2859.65,812.182
2860.01,806.823
2860.36,809.263
2860.71,812.152
2861.06,807.642
2861.42,806.332
2861.77,808.072
2862.12,804.063
2862.48,810.652
2862.83,802.143
2863.18,808.582
2863.53,802.723
2863.89,803.613
2864.24,807.303
2864.59,806.242
2864.94,799.733
2865.3,800.072
2865.65,801.362
2866,804.253
2866.35,803.243
2866.7,797.933
2867.06,804.323
2867.41,805.963
2867.76,801.103
2868.11,808.593
2868.47,799.082
2868.82,811.472
2869.17,795.663
2869.52,792.603
2869.87,806.343
2870.23,802.683
2870.58,800.523
2870.93,799.563
2871.28,806.903
2871.64,804.193
2871.99,796.983
2872.34,803.373
2872.69,806.363
2873.04,798.503
2873.39,812.643
2873.75,801.633
2874.1,816.223
2874.45,813.413
2874.8,813.153
2875.15,799.143
2875.5,799.433
2875.86,805.273
2876.21,809.663
2876.56,809.853
2876.91,808.893
2877.26,807.483
2877.61,806.573
2877.96,813.163
2878.32,815.953
2878.67,814.993
2879.02,815.133
2879.37,811.273
2879.72,817.863
2880.07,819.303
2880.42,812.593
2880.78,813.683
2881.13,820.623
2881.48,812.963
2881.83,813.953
2882.18,820.543
2882.53,812.883
2882.88,824.173
2883.23,816.063
2883.59,810.153
2883.94,816.093
2884.29,814.033
2884.64,820.723
2884.99,809.713
2885.34,809.003
2885.69,812.643
2886.04,808.083
2886.39,808.123
2886.74,805.263
2887.1,802.603
2887.45,815.993
2887.8,809.533
2888.15,810.273
2888.5,819.063
2888.85,815.153
2889.2,810.443
2889.55,809.883
2889.9,806.673
2890.25,809.863
2890.6,809.703
2890.95,812.543
2891.3,805.183
2891.65,814.223
2892,817.663
2892.35,812.603
2892.71,814.443
2893.06,808.933
2893.41,804.323
2893.76,811.213
2894.11,812.053
2894.46,811.493
2894.81,808.433
2895.16,807.923
2895.51,805.513
2895.86,808.303
2896.21,813.393
2896.56,808.183
2896.91,803.823
2897.26,801.863
2897.61,810.253
2897.96,810.143
2898.31,811.583
2898.66,810.773
2899.01,806.513
2899.36,800.853
2899.71,810.543
2900.06,811.183
2900.41,801.023
2900.76,803.613
2901.11,811.103
2901.46,806.943
2901.81,813.083
2902.16,810.374
2902.51,808.813
2902.86,802.154
2903.21,808.493
2903.56,800.284
2903.91,810.423
2904.26,811.813
2904.61,806.353
2904.96,803.694
2905.31,802.784
2905.66,805.824
2906,808.614
2906.35,803.104
2906.7,810.244
2907.05,802.483
2907.4,806.774
2907.75,800.363
2908.1,806.454
2908.45,805.394
2908.8,808.284
2909.15,809.324
2909.5,800.064
2909.85,798.854
2910.2,803.244
2910.55,798.484
2910.9,802.374
2911.24,805.664
2911.59,803.154
2911.94,804.594
2912.29,802.834
2912.64,802.074
2912.99,807.414
2913.34,800.054
2913.69,804.594
2914.04,808.984
2914.39,807.174
2914.73,800.964
2915.08,807.304
2915.43,797.194
2915.78,798.934
2916.13,805.574
2916.48,800.014
2916.83,804.004
2917.18,796.044
2917.53,799.884
2917.87,805.524
2918.22,805.214
2918.57,804.054
2918.92,804.244
2919.27,803.184
2919.62,811.824
2919.97,807.714
2920.31,798.904
2920.66,799.994
2921.01,800.884
2921.36,799.224
2921.71,800.314
2922.06,801.054
2922.4,801.194
2922.75,806.234
2923.1,798.574
2923.45,794.814
2923.8,797.554
2924.15,802.044
2924.49,800.884
2924.84,798.224
2925.19,799.514
2925.54,797.754
2925.89,797.744
2926.24,805.134
2926.58,794.774
2926.93,801.464
2927.28,798.354
2927.63,802.244
2927.98,799.134
2928.32,804.974
2928.67,802.314
2929.02,798.604
2929.37,798.944
2929.71,799.234
2930.06,799.224
2930.41,791.914
2930.76,799.504
2931.11,797.394
2931.45,798.234
2931.8,789.474
2932.15,796.964
2932.5,793.954
2932.84,799.794
2933.19,800.484
2933.54,797.724
2933.89,799.664
2934.23,791.504
2934.58,796.494
2934.93,797.784
2935.28,794.174
2935.62,802.714
2935.97,793.504
2936.32,797.494
2936.67,794.684
2937.01,789.224
2937.36,790.664
2937.71,793.954
2938.05,791.094
2938.4,792.284
2938.75,787.974
2939.1,789.064
2939.44,791.604
2939.79,786.644
2940.14,788.934
2940.49,786.724
2940.83,788.564
2941.18,788.854
2941.53,781.494
2941.87,785.834
2942.22,777.524
2942.57,784.865
2942.91,779.204
2943.26,782.445
2943.61,783.635
2943.95,775.975
2944.3,773.664
2944.65,774.605
2945,779.445
2945.34,771.685
2945.69,771.725
2946.04,778.615
2946.38,775.604
2946.73,772.495
2947.07,779.734
2947.42,766.525
2947.77,771.865
2948.12,764.505
2948.46,770.445
2948.81,766.185
2949.15,773.175
2949.5,767.665
2949.85,764.105
2950.19,763.995
2950.54,769.285
2950.89,767.125
2951.23,765.865
2951.58,766.455
2951.92,765.845
2952.27,757.735
2952.62,769.375
2952.96,758.565
2953.31,761.555
2953.66,757.995
2954,759.935
2954.35,764.675
2954.69,760.265
2955.04,766.205
2955.39,760.245
2955.73,765.335
2956.08,763.675
2956.42,761.065
2956.77,763.705
2957.12,762.995
2957.46,742.335
2957.81,751.175
2958.15,763.915
2958.5,764.405
2958.85,763.845
2959.19,759.535
2959.54,767.125
2959.88,760.415
2960.23,752.455
2960.57,760.545
2960.92,755.585
2961.27,755.225
2961.61,750.365
2961.96,761.705
2962.3,763.345
2962.65,756.035
2962.99,761.525
2963.34,755.165
2963.68,757.555
2964.03,755.295
2964.37,767.235
2964.72,753.375
2965.06,758.365
2965.41,760.705
2965.75,753.145
2966.1,759.385
2966.45,756.925
2966.79,759.015
2967.14,755.405
2967.48,751.995
2967.83,758.485
2968.17,753.875
2968.52,745.465
2968.86,750.005
2969.21,761.795
2969.55,756.385
2969.9,750.475
2970.24,757.365
2970.59,751.405
2970.93,752.845
2971.28,748.935
2971.62,754.825
2971.97,753.215
2972.31,751.655
2972.66,747.245
2973,751.285
2973.35,747.125
2973.69,750.015
2974.03,748.455
2974.38,750.145
2974.72,756.085
2975.07,749.325
2975.41,752.065
2975.76,742.555
2976.1,751.145
2976.45,747.985
2976.79,750.775
2977.14,744.665
2977.48,749.555
2977.82,750.895
2978.17,744.135
2978.51,747.875
2978.86,740.415
2979.2,749.255
2979.55,750.595
2979.89,751.285
2980.24,737.975
2980.58,753.615
2980.92,746.455
2981.27,747.395
2981.61,750.935
2981.96,745.425
2982.3,751.765
2982.64,742.306
2982.99,748.595
2983.33,740.735
2983.68,743.125
2984.02,738.665
2984.36,743.605
2984.71,740.745
2985.05,743.435
2985.4,742.476
2985.74,748.566
2986.08,745.806
2986.43,745.796
2986.77,746.636
2987.12,744.976
2987.46,736.916
2987.8,749.156
2988.15,741.096
2988.49,738.186
2988.83,740.176
2989.18,745.816
2989.52,745.706
2989.86,741.945
2990.21,741.436
2990.55,745.426
2990.9,742.716
2991.24,745.206
2991.58,744.896
2991.93,743.786
2992.27,738.726
2992.61,739.116
2992.95,745.306
2993.3,737.246
2993.64,748.086
2993.98,748.526
2994.33,741.516
2994.67,746.856
2995.01,742.696
2995.36,744.986
2995.7,743.776
2996.04,736.766
2996.39,744.656
2996.73,731.346
2997.07,737.836
2997.42,744.076
2997.76,734.466
2998.1,742.156
2998.44,744.546
2998.79,743.186
2999.13,734.026
2999.47,738.516
2999.82,733.506
3000.16,740.596
3000.5,737.086
3000.84,740.976
3001.19,742.216
3001.53,737.256
3001.87,735.296
3002.22,741.386
3002.56,740.076
3002.9,732.216
3003.24,736.406
3003.59,736.146
3003.93,738.036
3004.27,739.426
3004.61,739.566
3004.96,738.856
3005.3,744.196
3005.64,745.686
3005.98,738.276
3006.33,742.066
3006.67,746.056
3007.01,734.696
3007.35,734.336
3007.7,747.776
3008.04,736.266
3008.38,741.756
3008.72,738.246
3009.06,734.186
3009.41,734.926
3009.75,736.916
3010.09,734.156
3010.43,743.896
3010.78,740.436
3011.12,738.876
3011.46,740.166
3011.8,733.556
3012.14,731.146
3012.49,735.686
3012.83,740.976
3013.17,739.166
3013.51,735.806
3013.85,740.846
3014.19,733.986
3014.54,745.576
3014.88,737.616
3015.22,741.506
3015.56,739.896
3015.9,736.686
3016.24,735.376
3016.59,740.016
3016.93,742.306
3017.27,729.996
3017.61,741.536
3017.95,733.926
3018.29,736.016
3018.64,737.156
3018.98,745.746
3019.32,740.136
3019.66,736.376
3020,735.416
3020.34,737.906
3020.68,736.696
3021.03,739.186
3021.37,736.376
3021.71,738.966
3022.05,735.806
3022.39,737.096
3022.73,733.887
3023.07,734.727
3023.41,738.816
3023.76,727.157
3024.1,734.097
3024.44,740.437
3024.78,738.977
3025.12,734.717
3025.46,740.107
3025.8,735.747
3026.14,724.737
3026.48,726.876
3026.83,737.917
3027.17,740.957
3027.51,741.097
3027.85,734.737
3028.19,728.577
3028.53,740.616
3028.87,735.607
3029.21,730.996
3029.55,733.687
3029.89,732.927
3030.23,741.867
3030.57,730.107
3030.92,731.347
3031.25,731.387
3031.6,742.527
3031.94,732.917
3032.28,740.857
3032.62,739.947
3032.96,732.587
3033.3,738.327
3033.64,739.517
3033.98,737.307
3034.32,738.747
3034.66,736.187
3035,735.577
3035.34,735.467
3035.68,729.357
3036.02,738.197
3036.36,733.637
3036.7,735.077
3037.04,731.767
3037.38,727.707
3037.72,728.847
3038.06,728.737
3038.4,736.677
3038.74,733.867
3039.08,737.057
3039.42,738.797
3039.76,733.587
3040.1,733.577
3040.44,737.117
3040.78,737.207
3041.12,737.147
3041.46,734.937
3041.8,740.327
3042.14,737.117
3042.48,732.307
3042.82,733.147
3043.16,737.187
3043.5,728.527
3043.84,733.417
3044.18,739.507
3044.52,739.797
3044.86,735.837
3045.2,734.177
3045.54,731.617
3045.88,732.257
3046.22,737.597
3046.56,732.387
3046.9,730.277
3047.24,729.517
3047.58,733.607
3047.92,734.347
3048.25,735.487
3048.59,733.827
3048.93,734.517
3049.27,734.807
3049.61,735.247
3049.95,730.037
3050.29,739.227
3050.63,742.817
3050.97,733.807
3051.31,730.647
3051.65,735.887
3051.99,732.327
3052.33,727.517
3052.66,736.057
3053,727.797
3053.34,730.887
3053.68,733.777
3054.02,733.367
3054.36,734.207
3054.7,731.397
3055.04,742.637
3055.38,739.177
3055.71,735.467
3056.05,737.057
3056.39,735.897
3056.73,736.687
3057.07,738.227
3057.41,730.767
3057.75,728.507
3058.09,736.497
3058.42,737.237
3058.76,735.777
3059.1,735.267
3059.44,729.307
3059.78,731.197
3060.12,726.187
3060.46,737.628
3060.8,733.667
3061.13,738.807
3061.47,736.097
3061.81,729.537
3062.15,732.777
3062.49,737.417
3062.83,745.857
3063.16,727.648
3063.5,740.537
3063.84,734.977
3064.18,738.068
3064.52,738.907
3064.85,739.198
3065.19,734.737
3065.53,727.677
3065.87,734.468
3066.21,735.557
3066.55,735.648
3066.88,733.438
3067.22,737.278
3067.56,730.768
3067.9,740.658
3068.24,737.398
3068.57,737.338
3068.91,738.928
3069.25,734.268
3069.59,733.458
3069.93,731.398
3070.26,730.988
3070.6,731.428
3070.94,734.518
3071.28,722.158
3071.61,728.098
3071.95,727.188
3072.29,727.528
3072.63,738.718
3072.96,736.058
3073.3,730.248
3073.64,734.988
3073.98,733.928
3074.32,734.943
3074.65,735.958
3074.99,728.348
3075.33,728.988
3075.67,732.278
3076,734.418
3076.34,734.708
3076.68,734.548
3077.02,730.188
3077.35,732.978
3077.69,729.418
3078.03,731.058
3078.36,733.248
3078.7,736.088
3079.04,728.878
3079.38,724.718
3079.71,734.758
3080.05,724.948
3080.39,728.838
3080.72,739.028
3081.06,725.368
3081.4,729.058
3081.74,733.148
3082.07,731.738
3082.41,729.328
3082.75,734.318
3083.08,725.958
3083.42,733.348
3083.76,725.988
3084.09,728.628
3084.43,730.218
3084.77,727.008
3085.1,735.848
3085.44,733.888
3085.78,731.778
3086.11,726.818
3086.45,730.608
3086.79,728.398
3087.12,730.038
3087.46,720.228
3087.8,731.468
3088.13,720.708
3088.47,725.798
3088.81,727.288
3089.14,723.478
3089.48,726.668
3089.82,722.858
3090.15,725.848
3090.49,727.888
3090.83,729.528
3091.16,717.668
3091.5,727.858
3091.83,720.848
3092.17,719.388
3092.51,728.178
3092.84,730.118
3093.18,723.408
3093.51,729.398
3093.85,723.988
3094.19,721.028
3094.52,728.618
3094.86,720.858
3095.2,721.248
3095.53,721.888
3095.87,720.228
3096.2,720.318
3096.54,722.308
3096.88,720.148
3097.21,720.338
3097.55,732.878
3097.88,725.218
3098.22,720.358
3098.55,726.248
3098.89,725.388
3099.23,722.328
3099.56,722.868
3099.9,726.008
3100.23,728.798
3100.57,723.238
3100.9,725.129
3101.24,720.818
3101.58,719.109
3101.91,723.899
3102.25,724.988
3102.58,718.828
3102.92,719.519
3103.25,720.959
3103.59,725.549
3103.92,722.139
3104.26,719.329
3104.59,719.219
3104.93,716.359
3105.26,719.199
3105.6,726.289
3105.94,720.129
3106.27,723.769
3106.61,722.708
3106.94,717.249
3107.28,718.889
3107.61,719.679
3107.95,721.419
3108.28,717.309
3108.62,720.349
3108.95,720.089
3109.29,724.979
3109.62,716.969
3109.96,721.559
3110.29,723.099
3110.63,723.089
3110.96,707.429
3111.3,725.919
3111.63,722.909
3111.97,709.049
3112.3,711.739
3112.64,716.629
3112.97,724.519
3113.31,722.409
3113.64,722.349
3113.98,721.889
3114.31,722.329
3114.64,719.369
3114.98,721.409
3115.31,721.349
3115.65,719.539
3115.98,719.929
3116.32,722.169
3116.65,724.659
3116.99,719.099
3117.32,712.039
3117.65,713.079
3117.99,716.619
3118.32,716.409
3118.66,712.249
3118.99,718.089
3119.33,721.029
3119.66,713.519
3120,712.009
3120.33,714.399
3120.66,718.289
3121,718.129
3121.33,721.719
3121.67,721.559
3122,718.749
3122.33,710.339
3122.67,712.329
3123,714.869
3123.34,712.259
3123.67,716.449
3124,714.139
3124.34,716.229
3124.67,714.719
3125.01,715.909
3125.34,710.849
3125.67,713.239
3126.01,723.679
3126.34,711.069
3126.67,714.309
3127.01,713.549
3127.34,711.239
3127.68,715.979
3128.01,713.169
3128.34,715.959
3128.68,720.599
3129.01,715.439
3129.34,711.729
3129.68,719.019
3130.01,712.009
3130.34,716.949
3130.68,710.589
3131.01,713.029
3131.34,715.119
3131.68,707.309
3132.01,712.199
3132.35,714.639
3132.68,713.529
3133.01,712.669
3133.35,715.109
3133.68,709.699
3134.01,713.189
3134.35,712.379
3134.68,707.319
3135.01,715.309
3135.35,713.949
3135.68,707.189
3136.01,711.329
3136.34,723.419
3136.68,713.409
3137.01,710.549
3137.34,716.389
3137.68,709.379
3138.01,710.469
3138.34,710.609
3138.67,712.249
3139.01,706.539
3139.34,702.137
3139.67,717.52
3140.01,714.814
3140.34,710.488
3140.67,700.058
3141,710.043
3141.34,714.922
3141.67,709.658
3142,710.788
3142.34,712.054
3142.67,709.549
3143,711.835
3143.33,710.504
3143.67,704.77
3144,710.152
3144.33,702.694
3144.66,707.344
3145,709.222
3145.33,712.757
3145.66,705.064
3145.99,704.741
3146.33,706.782
3146.66,703.247
3146.99,707.065
3147.32,702.375
3147.65,710.376
3147.99,706.665
3148.32,704.802
3148.65,704.499
3148.98,703.825
3149.32,701.789
3149.65,702.29
3149.98,707.137
3150.31,703.977
3150.64,707.689
3150.98,704.925
3151.31,706.095
3151.64,707.613
3151.97,703.902
3152.3,707.255
3152.64,702.674
3152.97,705.483
3153.3,706.474
3153.63,705.059
3153.96,699.996
3154.3,709.453
3154.63,707.33
3154.96,708.115
3155.29,701.614
3155.62,703.295
3155.95,700.809
3156.28,700.746
3156.62,708.587
3156.95,702.552
3157.28,698.41
3157.61,702.712
3157.94,702.877
3158.27,701.581
3158.61,700.743
3158.94,699.351
3159.27,702.089
3159.6,694.041
3159.93,700.486
3160.26,697.077
3160.59,699.617
3160.93,701.604
3161.26,698.007
3161.59,700.214
3161.92,701.635
3162.25,700.038
3162.58,701.931
3162.91,701.709
3163.24,702.85
3163.57,699.077
3163.91,696.792
3164.24,697.426
3164.57,696.218
3164.9,701.106
3165.23,696.843
3165.56,695.818
3165.89,698.953
3166.22,698.648
3166.55,697.71
3166.88,703.471
3167.22,703.068
3167.55,697.224
3167.88,696.531
3168.21,694.777
3168.54,694.506
3168.87,693.758
3169.2,694.927
3169.53,696.713
3169.86,693.623
3170.19,693.645
3170.52,699.318
3170.85,698.689
3171.18,690.555
3171.51,691.728
3171.85,693.866
3172.18,691.87
3172.51,698.144
3172.84,701.964
3173.17,695.65
3173.34,691.054
3173.68,692.689
3174.01,689.224
3174.35,695.058
3174.68,697.493
3175.02,697.328
3175.35,697.213
3175.69,692.047
3176.02,694.282
3176.36,695.017
3176.69,692.502
3177.03,699.186
3177.36,700.521
3177.7,691.855
3178.03,695.64
3178.37,702.025
3178.7,691.26
3179.04,695.194
3179.37,695.329
3179.71,695.464
3180.04,690.198
3180.38,692.133
3180.71,695.968
3181.04,688.802
3181.38,696.337
3181.71,696.422
3182.05,692.807
3182.38,690.441
3182.72,686.226
3183.05,691.111
3183.38,691.895
3183.72,689.13
3184.05,685.315
3184.39,692.999
3184.72,696.684
3185.06,688.419
3185.39,695.703
3185.73,691.588
3186.06,688.773
3186.39,696.658
3186.73,695.792
3187.06,699.427
3187.4,696.162
3187.73,692.196
3188.06,699.981
3188.4,690.666
3188.73,694.201
3189.07,688.185
3189.4,697.32
3189.73,694.355
3190.07,686.889
3190.4,690.824
3190.74,694.259
3191.07,695.193
3191.4,692.428
3191.74,694.063
3192.07,697.797
3192.41,694.982
3192.74,687.667
3193.07,695.202
3193.41,694.736
3193.74,695.821
3194.07,685.456
3194.41,693.94
3194.74,689.725
3195.07,687.16
3195.41,691.044
3195.74,690.429
3196.07,690.264
3196.41,696.899
3196.74,689.433
3197.08,693.668
3197.41,688.803
3197.74,695.787
3198.08,690.822
3198.41,690.407
3198.74,693.341
3199.08,692.776
3199.41,694.111
3199.74,692.296
3200.08,685.93
3200.41,696.065
3200.74,690.849
3201.07,692.684
3201.41,693.119
3201.74,691.754
3202.07,688.788
3202.41,686.173
3202.74,692.358
3203.07,687.442
3203.41,686.127
3203.74,689.212
3204.07,687.047
3204.41,694.681
3204.74,693.766
3205.07,689.651
3205.4,692.335
3205.74,690.77
3206.07,678.805
3206.4,687.139
3206.73,693.324
3207.07,691.359
3207.4,688.993
3207.73,691.778
3208.07,692.063
3208.4,699.348
3208.73,692.182
3209.06,692.717
3209.4,692.102
3209.73,689.836
3210.06,690.521
3210.39,690.556
3210.73,694.091
3211.06,689.825
3211.39,688.86
3211.72,688.095
3212.06,689.079
3212.39,681.964
3212.72,693.199
3213.05,689.633
3213.39,686.768
3213.72,689.453
3214.05,684.937
3214.38,691.522
3214.71,692.957
3215.05,692.592
3215.38,688.176
3215.71,693.361
3216.04,688.696
3216.38,693.88
3216.71,694.815
3217.04,691.4
3217.37,685.934
3217.7,683.219
3218.03,688.304
3218.37,689.938
3218.7,686.273
3219.03,690.908
3219.36,691.193
3219.69,695.177
3220.03,688.662
3220.36,687.797
3220.69,689.781
3221.02,683.866
3221.35,693.651
3221.69,686.885
3222.02,686.67
3222.35,693.305
3222.68,685.39
3223.01,685.824
3223.34,686.109
3223.67,686.794
3224.01,687.878
3224.34,691.113
3224.67,687.548
3225,692.182
3225.33,683.167
3225.66,683.302
3226,687.487
3226.33,686.621
3226.66,685.556
3226.99,688.991
3227.32,686.375
3227.65,686.06
3227.98,684.645
3228.31,685.329
3228.65,684.064
3228.98,678.349
3229.31,685.683
3229.64,688.668
3229.97,684.703
3230.3,682.287
3230.63,687.772
3230.96,694.657
3231.29,689.042
3231.63,686.676
3231.96,682.811
3232.29,691.546
3232.62,682.68
3232.95,687.165
3233.28,688.15
3233.61,693.035
3233.94,688.969
3234.27,690.104
3234.6,683.789
3234.93,691.773
3235.27,679.758
3235.6,683.443
3235.93,679.627
3236.26,682.962
3236.59,679.247
3236.92,681.331
3237.25,685.166
3237.58,685.801
3237.91,679.185
3238.24,684.52
3238.57,676.605
3238.9,682.19
3239.23,686.674
3239.56,673.109
3239.89,687.344
3240.22,682.328
3240.55,681.413
3240.88,681.298
3241.22,677.033
3241.54,685.067
3241.88,686.552
3242.21,688.387
3242.54,684.771
3242.87,684.906
3243.2,682.141
3243.53,681.675
3243.86,684.46
3244.19,686.195
3244.52,686.23
3244.85,684.664
3245.18,686.999
3245.51,675.784
3245.84,681.318
3246.17,688.103
3246.5,683.888
3246.83,681.872
3247.16,686.207
3247.49,680.092
3247.82,688.776
3248.15,683.711
3248.48,684.746
3248.81,686.381
3249.14,688.165
3249.47,691
3249.8,679.435
3250.13,681.619
3250.46,684.154
3250.78,683.239
3251.11,673.773
3251.44,682.108
3251.77,684.743
3252.1,685.828
3252.43,681.612
3252.76,674.997
3253.09,675.132
3253.42,680.666
3253.75,676.951
3254.08,678.786
3254.41,676.27
3254.74,680.805
3255.07,669.74
3255.4,685.774
3255.73,684.209
3256.06,674.044
3256.39,676.979
3256.71,679.213
3257.04,680.148
3257.37,680.383
3257.7,681.617
3258.03,679.802
3258.36,678.037
3258.69,679.371
3259.02,677.556
3259.35,674.941
3259.68,671.476
3260.01,678.01
3260.34,677.845
3260.66,675.88
3260.99,675.764
3261.32,674.599
3261.65,671.734
3261.98,676.319
3262.31,673.553
3262.64,675.588
3262.97,678.422
3263.3,676.707
3263.62,677.142
3263.95,675.626
3264.28,679.961
3264.61,679.546
3264.94,674.131
3265.27,678.465
3265.6,674.65
3265.92,675.735
3266.25,667.12
3266.58,676.854
3266.91,676.989
3267.24,676.124
3267.57,657.208
3267.9,671.693
3268.22,667.728
3268.55,663.312
3268.88,678.297
3269.21,675.182
3269.54,667.116
3269.87,671.751
3270.19,665.686
3270.52,673.32
3270.85,676.455
3271.18,678.84
3271.51,676.325
3271.84,673.509
3272.16,675.094
3272.49,668.979
3272.82,669.463
3273.15,668.398
3273.48,677.383
3273.8,668.867
3274.13,670.552
3274.46,670.787
3274.79,678.222
3275.12,670.606
3275.44,671.091
3275.77,668.926
3276.1,673.51
3276.43,671.595
3276.76,674.58
3277.08,671.015
3277.41,672.299
3277.74,677.034
3278.07,672.969
3278.39,666.153
3278.72,671.488
3279.05,671.673
3279.38,665.457
3279.7,665.842
3280.03,672.777
3280.36,669.361
3280.69,665.346
3281.01,671.431
3281.34,674.866
3281.67,674.95
3282,669.785
3282.32,672.17
3282.65,675.104
3282.98,669.489
3283.31,666.524
3283.64,666.708
3283.96,664.643
3284.29,662.878
3284.62,674.712
3284.94,673.597
3285.27,670.932
3285.6,664.267
3285.93,666.901
3286.25,669.886
3286.58,663.721
3286.91,667.155
3287.23,670.69
3287.56,671.325
3287.89,665.659
3288.22,666.944
3288.54,673.779
3288.87,668.164
3289.2,670.798
3289.52,669.733
3289.85,669.018
3290.18,670.052
3290.5,668.537
3290.83,672.022
3291.16,666.706
3291.48,667.141
3291.81,670.376
3292.14,670.26
3292.46,667.495
3292.79,668.18
3293.12,663.615
3293.45,664.849
3293.77,671.934
3294.1,665.969
3294.42,666.404
3294.75,670.838
3295.08,672.423
3295.4,665.007
3295.73,659.642
3296.06,672.027
3296.38,668.612
3296.71,665.996
3297.04,666.181
3297.36,667.216
3297.69,661.3
3298.02,666.735
3298.34,665.32
3298.67,670.704
3298.99,663.589
3299.32,655.024
3299.65,669.658
3299.97,662.843
3300.3,663.078
3300.63,666.463
3300.95,664.447
3301.28,660.682
3301.6,666.217
3301.93,667.601
3302.26,667.386
3302.58,667.721
3302.91,664.005
3303.23,671.94
3303.56,671.775
3303.89,658.76
3304.21,666.244
3304.54,661.879
3304.86,667.264
3305.19,669.298
3305.51,668.733
3305.84,660.518
3306.17,664.052
3306.49,665.237
3306.82,661.022
3307.14,665.857
3307.47,668.041
3307.8,664.726
3308.12,661.261
3308.45,667.495
3308.77,669.53
3309.1,670.015
3309.42,664.05
3309.75,669.284
3310.07,669.569
3310.4,664.954
3310.72,658.538
3311.05,661.573
3311.38,662.558
3311.7,659.592
3312.03,674.377
3312.35,664.512
3312.68,659.396
3313,671.681
3313.33,666.316
3313.65,656.401
3313.98,662.335
3314.3,665.47
3314.63,660.354
3314.95,659.989
3315.28,665.274
3315.6,668.159
3315.93,657.743
3316.25,663.028
3316.58,672.563
3316.9,661.997
3317.23,661.032
3317.55,657.167
3317.88,663.302
3318.2,660.786
3318.53,661.771
3318.85,668.556
3319.18,656.39
3319.5,661.325
3319.83,657.61
3320.15,667.645
3320.48,665.579
3320.8,658.814
3321.13,662.199
3321.45,667.283
3321.78,662.568
3322.1,663.203
3322.42,663.337
3322.75,662.922
3323.07,660.607
3323.4,670.141
3323.72,663.026
3324.05,662.211
3324.37,667.245
3324.7,666.03
3325.02,664.365
3325.35,664.4
3325.67,661.684
3325.99,659.469
3326.32,656.504
3326.64,664.938
3326.97,658.473
3327.29,656.608
3327.62,658.492
3327.94,660.727
3328.26,661.112
3328.59,657.497
3328.91,660.831
3329.24,659.516
3329.56,662.051
3329.88,663.535
3330.21,667.37
3330.53,659.605
3330.86,666.09
3331.18,659.874
3331.5,662.859
3331.83,663.344
3332.15,663.728
3332.48,655.563
3332.8,659.098
3333.12,652.482
3333.45,658.217
3333.77,659.352
3334.1,663.786
3334.42,659.671
3334.74,656.156
3335.07,654.69
3335.39,657.225
3335.72,659.51
3336.04,662.445
3336.36,660.529
3336.69,658.714
3337.01,657.449
3337.33,652.333
3337.66,661.268
3337.98,663.053
3338.3,655.187
3338.63,659.872
3338.95,666.057
3339.27,659.392
3339.6,651.276
3339.92,657.311
3340.24,660.996
3340.57,662.33
3340.89,660.765
3341.21,660.3
3341.54,665.334
3341.86,662.169
3342.18,659.254
3342.51,660.939
3342.83,661.473
3343.15,658.108
3343.48,653.443
3343.8,660.827
3344.12,660.662
3344.45,658.847
3344.77,660.381
3345.09,662.166
3345.41,659.301
3345.74,656.386
3346.06,658.92
3346.38,656.705
3346.71,657.54
3347.03,657.074
3347.35,659.259
3347.68,654.944
3348,652.478
3348.32,655.713
3348.64,659.698
3348.97,652.232
3349.29,654.217
3349.61,652.052
3349.93,658.537
3350.26,660.971
3350.58,652.706
3350.9,656.791
3351.22,649.325
3351.55,662.31
3351.87,662.395
3352.19,660.479
3352.51,652.014
3352.84,657.999
3353.16,651.983
3353.48,661.218
3353.8,660.653
3354.13,656.938
3354.45,650.722
3354.77,652.707
3355.09,662.642
3355.42,659.676
3355.74,652.111
3356.06,651.696
3356.38,658.63
3356.7,656.715
3357.03,654.8
3357.35,655.434
3357.67,653.969
3357.99,665.704
3358.31,658.839
3358.64,655.123
3358.96,653.108
3359.28,652.343
3359.6,647.327
3359.92,656.062
3360.25,655.597
3360.57,658.481
3360.89,656.166
3361.21,661.101
3361.53,652.936
3361.86,654.32
3362.18,657.805
3362.5,652.99
3362.82,659.624
3363.14,659.359
3363.46,654.044
3363.79,651.828
3364.11,655.113
3364.43,656.798
3364.75,647.633
3365.07,659.167
3365.39,652.652
3365.72,649.587
3366.04,660.721
3366.36,651.256
3366.68,658.491
3367,655.975
3367.32,656.16
3367.64,654.595
3367.97,649.43
3368.29,655.914
3368.61,656.899
3368.93,655.984
3369.25,653.318
3369.57,653.353
3369.89,656.738
3370.22,656.272
3370.54,648.157
3370.86,651.092
3371.18,657.376
3371.5,654.211
3371.82,651.846
3372.14,656.38
3372.46,650.765
3372.78,651
3373.11,651.885
3373.43,653.669
3373.75,652.454
3374.07,651.839
3374.39,652.273
3374.71,646.608
3375.03,647.843
3375.35,656.977
3375.67,650.012
3375.99,651.947
3376.31,644.032
3376.64,658.316
3376.96,651.651
3377.28,652.636
3377.6,657.371
3377.92,645.305
3378.24,651.39
3378.56,654.874
3378.88,658.359
3379.2,652.094
3379.52,643.578
3379.84,642.463
3380.16,649.098
3380.48,643.183
3380.8,645.068
3381.12,645.252
3381.44,643.237
3381.76,651.421
3382.08,644.706
3382.4,644.141
3382.72,650.176
3383.05,646.06
3383.37,646.495
3383.69,649.33
3384.01,641.064
3384.33,648.399
3384.65,651.584
3384.97,640.718
3385.29,645.703
3385.61,650.838
3385.93,648.373
3386.25,646.157
3386.57,647.192
3386.89,653.527
3387.21,646.311
3387.53,646.446
3387.85,650.281
3388.17,647.016
3388.49,640.85
3388.81,644.385
3389.13,652.869
3389.45,641.104
3389.77,650.839
3390.09,640.924
3390.41,649.808
3390.73,643.693
3391.05,647.728
3391.37,644.562
3391.68,641.697
3392,640.782
3392.32,643.566
3392.64,649.151
3392.96,643.436
3393.28,638.171
3393.6,644.505
3393.92,642.54
3394.24,644.375
3394.56,641.009
3394.88,647.144
3395.2,646.129
3395.52,643.413
3395.84,645.548
3396.16,641.983
3396.48,640.318
3396.8,640.302
3397.12,642.287
3397.44,647.322
3397.76,643.006
3398.07,641.441
3398.39,637.326
3398.71,638.86
3399.03,639.145
3399.35,639.13
3399.67,636.164
3399.99,637.949
3400.31,642.384
3400.63,641.869
3400.95,636.503
3401.27,639.738
3401.58,636.923
3401.9,637.807
3402.22,640.092
3402.54,643.977
3402.86,633.411
3403.18,637.596
3403.5,635.281
3403.82,640.016
3404.14,632.65
3404.45,636.685
3404.77,632.82
3405.09,642.354
3405.41,638.939
3405.73,640.274
3406.05,644.958
3406.37,632.893
3406.68,636.228
3407,639.762
3407.32,636.297
3407.64,638.932
3407.96,640.017
3408.28,637.051
3408.6,636.836
3408.91,635.071
3409.23,644.255
3409.55,633.24
3409.87,639.025
3410.19,639.209
3410.51,636.044
3410.83,635.679
3411.14,631.064
3411.46,636.598
3411.78,635.533
3412.1,633.568
3412.42,636.852
3412.74,640.787
3413.05,631.272
3413.37,635.156
3413.69,638.691
3414.01,641.076
3414.32,636.961
3414.64,638.845
3414.96,635.68
3415.28,638.115
3415.6,629.599
3415.92,633.284
3416.23,631.019
3416.55,631.303
3416.87,628.538
3417.19,633.723
3417.5,639.608
3417.82,639.192
3418.14,635.027
3418.46,634.561
3418.78,634.396
3419.09,637.231
3419.41,633.516
3419.73,637.2
3420.05,633.835
3420.36,636.52
3420.68,633.154
3421,638.589
3421.32,632.274
3421.64,628.858
3421.95,636.143
3422.27,630.628
3422.59,630.613
3422.9,635.497
3423.22,629.732
3423.54,631.117
3423.86,629.151
3424.18,636.186
3424.49,633.621
3424.81,624.705
3425.13,632.14
3425.44,628.625
3425.76,629.66
3426.08,626.494
3426.4,633.179
3426.71,633.164
3427.03,629.099
3427.35,632.933
3427.66,628.118
3427.98,622.202
3428.3,627.737
3428.62,627.322
3428.93,633.457
3429.25,626.641
3429.57,624.876
3429.88,631.261
3430.2,626.695
3430.52,629.13
3430.83,644.665
3431.15,655.549
3431.47,673.234
3431.78,683.819
3432.1,671.504
3432.42,660.688
3432.74,686.123
3433.05,670.258
3433.37,636.442
3433.69,620.627
3434,627.212
3434.32,638.846
3434.64,621.131
3434.95,631.066
3435.27,625.101
3435.59,628.435
3435.9,625.47
3436.22,626.255
3436.54,631.189
3436.85,630.124
3437.17,622.959
3437.48,628.994
3437.8,626.278
3438.12,629.413
3438.43,623.397
3438.75,630.382
3439.07,627.667
3439.38,627.302
3439.7,633.036
3440.01,628.271
3440.33,634.556
3440.65,622.99
3440.96,625.025
3441.28,628.758
3441.6,621.685
3441.91,625.882
3442.23,628.209
3442.54,632.725
3442.86,626.919
3443.18,622.567
3443.49,629.12
3443.81,625.274
3444.12,624.869
3444.44,628.2
3444.76,629.585
3445.07,630.892
3445.39,623.345
3445.7,632.526
3446.02,625.42
3446.33,622.137
3446.65,627.637
3446.97,631.543
3447.28,624.017
3447.6,629.863
3447.91,630.451
3448.23,623.866
3448.55,620.751
3448.86,625.216
3449.18,628.989
3449.49,622.263
3449.81,627.681
3450.12,630.587
3450.44,627.425
3450.75,624.17
3451.07,622.185
3451.39,624.281
3451.7,626.236
3452.02,627.992
3452.33,629.345
3452.65,624.775
3452.96,626.699
3453.28,623.157
3453.59,625.912
3453.91,625.033
3454.22,626.509
3454.54,629.238
3454.85,624.353
3455.17,627.625
3455.48,627.76
3455.8,626.638
3456.11,627.187
3456.43,622.789
3456.74,624.606
3457.06,623.45
3457.37,626.021
3457.69,623.273
3458,624.003
3458.32,622.196
3458.63,623.49
3458.95,624.572
3459.26,626.417
3459.58,625.773
3459.89,624.545
3460.21,619.364
3460.52,622.378
3460.84,625.602
3461.15,628.032
3461.47,630.163
3461.78,626.949
3462.1,624.615
3462.41,627.485
3462.73,627.284
3463.04,624.993
3463.35,625.998
3463.67,629.512
3463.98,627.034
3464.3,623.66
3464.61,622.694
3464.93,622.911
3465.24,622.31
3465.56,624.648
3465.87,625.999
3466.19,624.694
3466.5,624.695
3466.81,626.157
3467.13,626.686
3467.44,629.004
3467.76,629.662
3468.07,625.173
3468.38,621.135
3468.7,626.741
3469.01,629.017
3469.33,624.288
3469.64,624.133
3469.96,619.916
3470.27,626.373
3470.58,627.846
3470.9,624.157
3471.21,623.111
3471.53,624.903
3471.84,629.541
3472.15,621.513
3472.47,621.356
3472.74,620.453
3473.05,624.142
3473.37,619.18
3473.69,625.018
3474.01,620.057
3474.33,620.895
3474.65,628.434
3474.97,630.073
3475.28,625.161
3475.6,619.149
3475.92,621.294
3476.24,626.039
3476.56,623.433
3476.87,617.278
3477.19,622.273
3477.51,626.617
3477.83,624.212
3478.15,618.707
3478.47,627.251
3478.78,623.496
3479.1,621.191
3479.42,622.885
3479.74,623.23
3480.06,618.874
3480.37,626.419
3480.69,621.414
3481.01,623.009
3481.33,623.903
3481.65,618.098
3481.96,623.143
3482.28,617.637
3482.6,615.632
3482.92,624.127
3483.23,621.921
3483.55,621.216
3483.87,616.711
3484.19,630.755
3484.5,620.15
3484.82,626.644
3485.14,622.039
3485.46,622.634
3485.78,616.278
3486.09,617.623
3486.41,627.018
3486.73,621.112
3487.05,625.207
3487.36,626.252
3487.68,625.096
3488,621.241
3488.32,622.786
3488.63,619.23
3488.95,621.125
3489.27,621.87
3489.59,622.864
3489.9,623.609
3490.22,620.203
3490.54,624.448
3490.85,620.293
3491.17,624.337
3491.49,620.882
3491.81,623.177
3492.12,619.672
3492.44,619.716
3492.76,622.911
3493.08,623.505
3493.39,619.6
3493.71,618.945
3494.03,625.489
3494.34,626.484
3494.66,626.579
3494.98,614.673
3495.29,616.068
3495.61,617.913
3495.93,619.857
3496.24,621.802
3496.56,619.047
3496.88,621.341
3497.2,620.536
3497.51,622.78
3497.83,624.825
3498.15,615.67
3498.46,626.014
3498.78,619.159
3499.09,615.704
3499.41,624.398
3499.73,616.643
3500.05,621.338
3500.36,622.582
3500.68,618.727
3501,618.972
3501.31,620.766
3501.63,619.611
3501.94,619.956
3502.26,619.95
3502.58,616.645
3502.89,617.99
3503.21,622.234
3503.53,621.429
3503.84,621.274
3504.16,620.768
3504.48,618.913
3504.79,623.207
3505.11,627.452
3505.43,622.747
3505.74,623.142
3506.06,617.636
3506.37,620.481
3506.69,620.026
3507.01,620.97
3507.32,615.565
3507.64,621.659
3507.95,617.504
3508.27,614.999
3508.59,611.693
3508.9,616.838
3509.22,624.183
3509.53,615.827
3509.85,620.422
3510.17,623.117
3510.48,618.911
3510.8,621.056
3511.11,628.5
3511.43,620.245
3511.74,618.64
3512.06,625.185
3512.38,618.079
3512.69,612.724
3513.01,617.719
3513.32,614.713
3513.64,621.558
3513.96,620.603
3514.27,617.247
3514.59,618.842
3514.9,626.487
3515.22,618.231
3515.53,616.826
3515.85,618.07
3516.16,617.165
3516.48,616.86
3516.79,617.704
3517.11,617.899
3517.43,611.994
3517.74,616.638
3518.06,618.533
3518.37,618.178
3518.69,623.272
3519,618.567
3519.32,623.312
3519.63,615.756
3519.95,612.501
3520.26,619.246
3520.58,614.54
3520.89,614.485
3521.21,624.029
3521.52,619.974
3521.84,618.319
3522.15,618.663
3522.47,610.808
3522.78,621.853
3523.1,615.197
3523.41,617.192
3523.73,613.137
3524.04,609.131
3524.36,616.376
3524.67,614.771
3524.99,609.015
3525.3,615.21
3525.62,617.455
3525.93,621.449
3526.25,619.844
3526.56,609.839
3526.88,611.833
3527.19,614.878
3527.51,614.823
3527.82,612.667
3528.14,613.862
3528.45,620.057
3528.77,615.651
3529.08,619.246
3529.4,607.79
3529.71,609.235
3530.02,612.03
3530.34,614.374
3530.65,614.919
3530.97,614.664
3531.28,608.308
3531.6,615.553
3531.91,616.598
3532.22,610.142
3532.54,606.437
3532.85,616.482
3533.17,608.426
3533.48,606.621
3533.8,606.516
3534.11,613.66
3534.43,605.905
3534.74,606.3
3535.05,611.144
3535.37,611.989
3535.68,609.184
3536,612.478
3536.31,613.073
3536.62,608.718
3536.94,610.612
3537.25,606.657
3537.57,615.551
3537.88,610.846
3538.19,598.841
3538.51,607.085
3538.82,611.48
3539.14,602.725
3539.45,614.819
3539.76,609.564
3540.08,604.359
3540.39,608.103
3540.71,611.098
3541.02,613.693
3541.33,607.937
3541.65,606.632
3541.96,610.977
3542.27,613.521
3542.59,606.666
3542.9,610.911
3543.21,609.055
3543.53,609.6
3543.84,612.295
3544.16,611.689
3544.47,610.484
3544.78,608.328
3545.09,607.173
3545.41,611.468
3545.72,606.062
3546.04,610.757
3546.35,607.702
3546.66,608.546
3546.98,606.891
3547.29,607.886
3547.6,606.03
3547.92,612.325
3548.23,607.72
3548.54,608.664
3548.86,604.159
3549.17,606.404
3549.48,607.948
3549.79,606.143
3550.11,605.788
3550.42,608.982
3550.73,610.227
3551.05,606.372
3551.36,611.116
3551.67,608.811
3551.99,608.856
3552.3,607.45
3552.61,600.945
3552.93,608.639
3553.24,609.434
3553.55,607.679
3553.86,603.323
3554.18,603.868
3554.49,609.613
3554.8,609.557
3555.11,602.052
3555.43,608.297
3555.74,611.041
3556.05,602.536
3556.37,606.131
3556.68,608.625
3556.99,600.17
3557.3,604.415
3557.62,602.459
3557.93,609.354
3558.24,597.648
3558.55,604.793
3558.87,609.938
3559.18,605.933
3559.49,604.627
3559.8,602.572
3560.12,608.117
3560.43,600.561
3560.74,603.606
3561.05,608.65
3561.37,601.845
3561.68,605.64
3561.99,605.934
3562.3,601.429
3562.61,606.974
3562.93,601.268
3563.24,591.463
3563.55,600.108
3563.86,605.252
3564.18,602.847
3564.49,601.142
3564.8,605.186
3565.11,606.681
3565.42,601.626
3565.74,604.47
3566.05,602.065
3566.36,594.51
3566.67,600.504
3566.98,599.649
3567.3,596.594
3567.61,599.038
3567.92,600.783
3568.23,598.478
3568.54,606.422
3568.86,604.417
3569.17,598.812
3569.48,595.956
3569.79,597.351
3570.1,605.845
3570.42,598.99
3570.73,600.735
3571.04,603.029
3571.35,602.974
3571.66,602.769
3571.97,591.613
3572.28,593.608
3572.6,599.253
3572.91,600.497
3573.22,599.142
3573.53,607.637
3573.84,596.031
3574.15,598.626
3574.46,598.17
3574.78,593.915
3575.09,593.21
3575.4,596.055
3575.71,593.449
3576.02,599.494
3576.33,596.938
3576.64,598.833
3576.96,593.328
3577.27,597.922
3577.58,600.467
3577.89,596.012
3578.2,603.806
3578.51,596.751
3578.82,598.396
3579.13,597.84
3579.45,593.735
3579.76,596.23
3580.07,598.274
3580.38,597.119
3580.69,598.714
3581,594.758
3581.31,599.303
3581.62,607.498
3581.93,591.792
3582.24,597.787
3582.55,595.632
3582.86,599.426
3583.18,592.671
3583.49,597.615
3583.8,598.11
3584.11,596.605
3584.42,590.4
3584.73,596.094
3585.04,595.839
3585.35,596.983
3585.66,598.478
3585.97,599.623
3586.28,598.267
3586.59,595.862
3586.9,591.857
3587.21,594.701
3587.52,594.396
3587.83,597.991
3588.15,594.585
3588.46,594.18
3588.77,592.225
3589.08,595.469
3589.39,591.214
3589.7,597.159
3590.01,592.703
3590.32,593.798
3590.63,600.693
3590.94,594.087
3591.25,593.482
3591.56,599.227
3591.87,599.171
3592.18,591.216
3592.49,596.26
3592.8,595.955
3593.11,596.25
3593.42,592.744
3593.73,591.639
3594.04,593.784
3594.35,594.578
3594.66,597.273
3594.97,595.068
3595.28,592.112
3595.59,597.857
3595.9,593.102
3596.21,585.596
3596.52,593.441
3596.83,587.286
3597.14,591.63
3597.45,595.075
3597.76,599.67
3598.07,589.814
3598.38,588.859
3598.69,588.854
3599,590.598
3599.31,593.343
3599.62,602.037
3599.93,594.732
3600.24,595.027
3600.55,597.321
3600.86,593.216
3601.17,590.461
3601.47,591.605
3601.78,587.4
3602.09,593.295
3602.4,589.239
3602.71,587.734
3603.02,590.979
3603.33,585.573
3603.64,592.468
3603.95,592.613
3604.26,595.457
3604.57,592.552
3604.88,585.547
3605.19,592.191
3605.5,587.636
3605.81,588.631
3606.12,590.775
3606.42,593.32
3606.73,598.865
3607.04,595.959
3607.35,595.504
3607.66,590.148
3607.97,592.443
3608.28,590.488
3608.59,591.283
3608.9,586.177
3609.21,593.272
3609.52,585.516
3609.82,590.511
3610.13,591.206
3610.44,592.05
3610.75,590.045
3611.06,593.99
3611.37,594.834
3611.68,588.179
3611.99,583.674
3612.29,584.568
3612.6,590.963
3612.91,593.158
3613.22,591.252
3613.53,586.897
3613.84,583.742
3614.15,587.036
3614.46,591.081
3614.76,582.676
3615.07,589.57
3615.38,586.715
3615.69,589.159
3616,587.504
3616.31,590.499
3616.61,589.293
3616.92,594.038
3617.23,584.433
3617.54,581.427
3617.85,589.922
3618.16,593.167
3618.47,586.061
3618.77,586.856
3619.08,587.851
3619.39,586.245
3619.7,585.64
3620.01,591.235
3620.31,585.929
3620.62,589.174
3620.93,586.219
3621.24,587.663
3621.55,589.758
3621.86,583.803
3622.16,582.897
3622.47,585.892
3622.78,586.437
3623.09,589.931
3623.4,590.276
3623.7,588.27
3624.01,578.865
3624.32,581.51
3624.63,593.554
3624.94,587.649
3625.24,589.493
3625.55,585.188
3625.86,589.233
3626.17,584.928
3626.47,585.922
3626.78,585.267
3627.09,587.012
3627.4,587.356
3627.71,587.451
3628.01,581.946
3628.32,578.64
3628.63,589.785
3628.94,583.48
3629.24,584.374
3629.55,586.969
3629.86,586.013
3630.17,593.008
3630.47,590.353
3630.78,589.597
3631.09,580.692
3631.4,582.687
3631.7,585.531
3632.01,581.576
3632.32,582.871
3632.63,588.515
3632.93,585.26
3633.24,577.155
3633.55,592.199
3633.85,587.094
3634.16,585.089
3634.47,587.133
3634.78,587.028
3635.08,586.523
3635.39,585.567
3635.7,583.312
3636.01,585.257
3636.31,592.651
3636.62,581.796
3636.93,583.491
3637.23,592.735
3637.54,585.18
3637.85,584.025
3638.15,589.319
3638.46,584.064
3638.77,585.658
3639.07,582.953
3639.38,579.448
3639.69,581.143
3640,583.387
3640.3,582.182
3640.61,580.276
3640.92,581.971
3641.22,585.766
3641.53,576.91
3641.84,574.505
3642.14,581.1
3642.45,583.094
3642.76,571.089
3643.06,585.784
3643.37,580.978
3643.68,578.073
3643.98,578.618
3644.29,582.812
3644.6,583.807
3644.9,580.301
3645.21,583.596
3645.51,583.841
3645.82,578.786
3646.13,577.68
3646.43,580.475
3646.74,576.769
3647.05,584.964
3647.35,582.009
3647.66,580.903
3647.97,583.748
3648.27,578.993
3648.58,570.587
3648.88,580.282
3649.19,581.827
3649.5,575.321
3649.8,577.216
3650.11,580.861
3650.41,580.955
3650.72,574.6
3651.03,574.745
3651.33,582.989
3651.64,581.234
3651.94,583.078
3652.25,585.073
3652.56,582.468
3652.86,578.712
3653.17,580.607
3653.47,576.052
3653.78,574.346
3654.09,577.641
3654.39,585.086
3654.7,573.53
3655,578.925
3655.31,579.57
3655.61,586.164
3655.92,577.509
3656.23,582.604
3656.53,578.248
3656.84,580.493
3657.14,583.088
3657.45,586.932
3657.75,578.977
3658.06,576.471
3658.37,576.266
3658.67,572.211
3658.98,583.356
3659.28,575.8
3659.59,578.895
3659.89,571.939
3660.2,579.734
3660.5,578.929
3660.81,579.123
3661.11,577.868
3661.42,578.913
3661.72,578.508
3662.03,576.952
3662.34,574.647
3662.64,582.091
3662.94,580.686
3663.25,581.081
3663.56,578.425
3663.86,574.72
3664.17,579.465
3664.47,572.509
3664.78,572.354
3665.08,579.899
3665.39,584.143
3665.69,574.688
3666,576.932
3666.3,568.327
3666.61,573.322
3666.91,571.866
3667.22,580.611
3667.52,574.406
3667.83,576.201
3668.13,576.495
3668.44,570.74
3668.74,571.559
3669.05,572.379
3669.35,569.824
3669.65,577.768
3669.96,580.613
3670.26,568.358
3670.57,569.652
3670.87,578.247
3671.18,576.792
3671.48,577.236
3671.79,570.931
3672.09,574.026
3672.4,568.07
3672.7,577.265
3673.01,573.359
3673.31,573.904
3673.61,576.649
3673.92,571.194
3674.22,572.338
3674.53,574.583
3674.83,571.728
3675.14,566.622
3675.44,569.917
3675.74,570.361
3676.05,568.856
3676.35,571.251
3676.66,564.545
3676.96,573.04
3677.27,559.835
3677.57,570.829
3677.87,565.874
3678.18,573.669
3678.48,572.513
3678.79,569.658
3679.09,568.753
3679.4,576.747
3679.7,573.542
3680,573.087
3680.31,571.281
3680.61,566.826
3680.91,574.371
3681.22,565.465
3681.52,569.91
3681.83,566.904
3682.13,571.799
3682.43,576.344
3682.74,563.438
3683.04,572.783
3683.34,569.328
3683.65,569.672
3683.95,569.317
3684.26,563.412
3684.56,566.606
3684.86,565.601
3685.17,568.746
3685.47,569.09
3685.77,570.935
3686.08,566.83
3686.38,565.524
3686.68,561.569
3686.99,571.164
3687.29,562.158
3687.6,571.053
3687.9,565.398
3688.2,567.342
3688.5,575.187
3688.81,569.681
3689.11,567.226
3689.42,566.971
3689.72,566.165
3690.02,561.51
3690.33,566.005
3690.63,566.649
3690.93,565.644
3691.24,566.339
3691.54,573.333
3691.84,568.028
3692.14,567.373
3692.45,569.067
3692.75,565.712
3693.05,566.507
3693.36,573.001
3693.66,567.596
3693.96,565.641
3694.27,563.435
3694.57,562.68
3694.87,569.125
3695.17,565.469
3695.48,561.614
3695.78,563.859
3696.08,565.453
3696.39,563.498
3696.69,559.943
3696.99,561.237
3697.3,562.232
3697.6,563.126
3697.9,562.121
3698.2,555.266
3698.51,563.16
3698.81,562.655
3699.11,566.25
3699.41,562.744
3699.72,565.439
3700.02,565.634
3700.32,567.628
3700.62,557.573
3700.93,561.968
3701.23,565.262
3701.53,561.807
3701.83,557.452
3702.14,557.446
3702.44,557.241
3702.74,563.536
3703.04,559.48
3703.35,561.475
3703.65,566.77
3703.95,563.064
3704.25,563.509
3704.55,562.903
3704.86,564.898
3705.16,555.893
3705.46,560.987
3705.76,563.282
3706.07,565.477
3706.37,556.671
3706.67,557.916
3706.97,560.161
3707.27,557.855
3707.58,554.65
3707.88,565.594
3708.18,554.789
3708.48,564.384
3708.78,556.379
3709.09,564.273
3709.39,565.918
3709.69,559.213
3709.99,560.807
3710.29,559.502
3710.6,561.947
3710.9,564.691
3711.2,560.286
3711.5,560.831
3711.8,560.225
3712.1,563.87
3712.41,552.015
3712.71,558.009
3713.01,564.404
3713.31,558.998
3713.61,555.843
3713.91,554.238
3714.22,556.732
3714.52,555.027
3714.82,554.672
3715.12,559.466
3715.42,555.361
3715.72,559.056
3716.02,560.55
3716.33,553.695
3716.63,561.34
3716.93,554.884
3717.23,559.529
3717.53,557.674
3717.83,554.718
3718.13,559.213
3718.44,555.708
3718.74,549.552
3719.04,557.497
3719.34,560.341
3719.64,556.236
3719.94,555.731
3720.24,562.826
3720.54,555.67
3720.85,553.215
3721.15,553.509
3721.45,559.204
3721.75,562.999
3722.05,554.343
3722.35,557.388
3722.65,561.133
3722.95,553.377
3723.25,557.522
3723.55,554.867
3723.85,554.361
3724.16,557.706
3724.46,553.501
3724.76,555.145
3725.06,553.74
3725.36,555.435
3725.66,558.679
3725.96,556.474
3726.26,553.768
3726.56,554.913
3726.86,556.458
3727.16,558.253
3727.46,560.397
3727.76,544.592
3728.06,556.036
3728.36,552.431
3728.67,557.526
3728.97,557.87
3729.27,550.665
3729.57,553.16
3729.87,549.401
3730.17,553.938
3730.47,556.791
3730.77,556.919
3731.07,556.737
3731.37,551.727
3731.67,549.341
3731.97,553.82
3732.27,547.629
3732.57,551.846
3732.87,559.864
3733.17,549.51
3733.47,548.366
3733.77,550.55
3734.07,552.298
3734.37,549.318
3734.67,558.006
3734.97,550.552
3735.27,550.634
3735.57,555.149
3735.87,553.803
3736.17,550.137
3736.47,552.341
3736.77,546.007
3737.07,552.264
3737.37,548.632
3737.67,548.88
3737.97,548.182
3738.27,553.479
3738.57,550.118
3738.87,547.1
3739.17,546.108
3739.47,548.832
3739.77,547.483
3740.07,551.564
3740.37,545.341
3740.67,546.868
3740.97,554.168
3741.27,545.007
3741.57,549.603
3741.87,547.881
3742.17,548.951
3742.47,546.743
3742.77,549.652
3743.07,549.383
3743.37,549.687
3743.67,545.996
3743.97,548.166
3744.27,548.922
3744.56,546.985
3744.86,547.582
3745.16,546.865
3745.46,548.694
3745.76,549.02
3746.06,549.612
3746.36,546.946
3746.66,542.757
3746.96,548.38
3747.26,546.872
3747.56,547.358
3747.86,543.982
3748.16,544.148
3748.45,545.168
3748.75,546.325
3749.05,546.091
3749.35,544.936
3749.65,545.102
3749.95,542.438
3750.25,544.98
3750.55,547.033
3750.85,539.943
3751.15,547.461
3751.45,543.384
3751.74,545.42
3752.04,542.818
3752.34,543.115
3752.64,544.19
3752.94,542.805
3753.24,542.521
3753.54,546.484
3753.84,541.075
3754.13,544.334
3754.43,547.805
3754.73,543.383
3755.03,547.373
3755.33,544.024
3755.63,541.118
3755.93,543.62
3756.23,542.768
3756.52,543.122
3756.82,543.63
3757.12,543.906
3757.42,543.409
3757.72,540.797
3758.02,539.842
3758.12,540.041
3758.43,537.071
3758.73,537.8
3759.03,543.529
3759.33,544.958
3759.64,536.938
3759.94,538.767
3760.24,538.346
3760.54,539.475
3760.85,538.755
3761.15,540.484
3761.45,538.113
3761.76,538.242
3762.06,534.222
3762.36,535.951
3762.66,534.63
3762.97,541.659
3763.27,536.689
3763.57,538.568
3763.87,544.547
3764.18,537.227
3764.48,536.406
3764.78,543.685
3765.08,542.914
3765.39,539.994
3765.69,536.523
3765.99,540.752
3766.3,540.731
3766.6,543.061
3766.9,539.94
3767.2,535.119
3767.5,540.298
3767.81,539.378
3768.11,539.557
3768.41,534.686
3768.71,537.065
3769.02,527.545
3769.32,537.274
3769.62,537.253
3769.92,545.383
3770.22,536.862
3770.53,541.141
3770.83,537.62
3771.13,533.9
3771.43,535.879
3771.74,535.008
3772.04,539.887
3772.34,527.617
3772.64,535.646
3772.94,532.725
3773.25,537.154
3773.55,535.084
3773.85,532.663
3774.15,535.242
3774.45,531.471
3774.75,531.401
3775.06,531.28
3775.36,531.209
3775.66,534.238
3775.96,533.118
3776.26,533.947
3776.56,542.576
3776.87,533.806
3777.17,533.235
3777.47,541.164
3777.77,537.093
3778.07,534.472
3778.37,535.352
3778.68,536.131
3778.98,532.06
3779.28,531.39
3779.58,532.719
3779.88,539.948
3780.18,528.877
3780.49,531.657
3780.79,536.886
3781.09,532.015
3781.39,534.294
3781.69,538.524
3781.99,534.203
3782.29,533.132
3782.59,527.661
3782.9,540.191
3783.2,536.37
3783.5,535.699
3783.8,527.728
3784.1,535.308
3784.4,534.937
3784.7,535.566
3785,528.846
3785.3,529.375
3785.61,532.954
3785.91,529.533
3786.21,534.913
3786.51,532.242
3786.81,532.771
3787.11,529.95
3787.41,533.23
3787.71,526.709
3788.01,532.488
3788.32,531.567
3788.62,532.847
3788.92,530.776
3789.22,530.605
3789.52,527.935
3789.82,527.214
3790.12,532.343
3790.42,530.522
3790.72,528.401
3791.02,530.031
3791.32,529.71
3791.62,531.189
3791.92,529.869
3792.22,534.598
3792.53,523.827
3792.83,527.956
3793.13,525.736
3793.43,530.715
3793.73,531.944
3794.03,528.823
3794.33,523.103
3794.63,527.982
3794.93,526.811
3795.23,525.94
3795.53,527.17
3795.83,529.349
3796.13,524.428
3796.43,524.158
3796.73,529.887
3797.03,530.716
3797.33,527.495
3797.63,524.224
3797.93,526.004
3798.23,526.433
3798.53,528.262
3798.83,524.592
3799.13,524.471
3799.43,527.8
3799.73,524.179
3800.03,528.309
3800.33,525.238
3800.63,524.117
3800.93,526.396
3801.24,528.976
3801.53,525.455
3801.83,525.634
3802.13,530.463
3802.43,521.593
3802.73,526.022
3803.03,528.851
3803.33,524.581
3803.63,518.71
3803.93,525.189
3804.23,522.218
3804.53,523.697
3804.83,530.627
3805.13,525.706
3805.43,519.785
3805.73,522.115
3806.03,527.594
3806.33,526.923
3806.63,516.952
3806.93,525.232
3807.23,523.311
3807.53,523.44
3807.83,524.519
3808.13,525.599
3808.43,525.178
3808.73,523.707
3809.03,521.837
3809.33,524.016
3809.63,529.595
3809.93,519.524
3810.22,524.654
3810.53,526.833
3810.82,523.562
3811.12,520.791
3811.42,517.521
3811.72,529.25
3812.02,517.979
3812.32,524.008
3812.62,521.938
3812.92,522.167
3813.22,521.596
3813.52,520.375
3813.82,525.005
3814.12,525.434
3814.41,515.713
3814.71,519.942
3815.01,520.472
3815.31,523.901
3815.61,521.53
3815.91,522.709
3816.21,523.789
3816.51,525.268
3816.81,521.447
3817.11,520.876
3817.4,517.006
3817.7,525.935
3818,522.914
3818.3,520.193
3818.6,523.823
3818.9,521.952
3819.2,520.381
3819.5,520.311
3819.79,519.09
3820.09,514.169
3820.39,521.198
3820.69,516.278
3820.99,523.307
3821.29,519.286
3821.59,520.665
3821.89,509.845
3822.18,519.374
3822.48,519.803
3822.78,522.132
3823.08,519.312
3823.38,515.641
3823.68,515.72
3823.97,512.399
3824.27,515.629
3824.57,515.908
3824.87,514.987
3825.17,526.716
3825.47,520.546
3825.76,520.925
3826.06,516.954
3826.36,519.484
3826.66,518.463
3826.96,512.142
3827.26,519.771
3827.55,520.701
3827.85,524.98
3828.15,518.959
3828.45,520.038
3828.75,521.718
3829.04,519.847
3829.34,521.576
3829.64,515.505
3829.94,519.735
3830.24,515.214
3830.53,513.643
3830.83,517.723
3831.13,520.802
3831.43,518.581
3831.73,513.96
3832.02,519.94
3832.32,518.669
3832.62,515.598
3832.92,512.227
3833.22,516.507
3833.51,514.086
3833.81,514.665
3834.11,514.844
3834.41,514.724
3834.7,519.903
3835,522.482
3835.3,516.161
3835.6,520.941
3835.9,516.07
3836.19,514.049
3836.49,515.378
3836.79,508.958
3837.08,515.087
3837.38,514.166
3837.68,516.245
3837.98,514.625
3838.28,517.754
3838.57,518.233
3838.87,514.663
3839.17,510.692
3839.46,513.321
3839.76,513.05
3840.06,513.88
3840.36,512.159
3840.65,516.438
3840.95,521.517
3841.25,516.897
3841.55,521.076
3841.84,515.105
3842.14,511.034
3842.44,514.264
3842.73,511.293
3843.03,510.172
3843.33,511.351
3843.63,514.431
3843.92,509.81
3844.22,508.189
3844.52,516.318
3844.81,510.548
3845.11,512.827
3845.41,511.756
3845.7,504.736
3846,508.565
3846.3,507.294
3846.59,515.873
3846.89,508.103
3847.19,512.382
3847.49,512.811
3847.78,516.84
3848.08,509.12
3848.38,514.749
3848.67,509.278
3848.97,508.457
3849.27,503.237
3849.56,512.566
3849.86,504.495
3850.16,509.824
3850.45,509.104
3850.75,510.583
3851.05,508.362
3851.34,512.292
3851.64,509.871
3851.94,507.9
3852.23,511.529
3852.53,509.559
3852.82,511.488
3853.12,504.267
3853.42,510.196
3853.71,515.126
3854.01,507.655
3854.31,510.134
3854.6,506.063
3854.9,514.843
3855.2,512.372
3855.49,511.951
3855.79,511.73
3856.08,507.76
3856.38,510.839
3856.68,513.968
3856.97,510.498
3857.27,509.377
3857.56,510.206
3857.86,512.635
3858.16,511.865
3858.45,505.244
3858.75,509.573
3859.04,506.802
3859.34,505.482
3859.64,509.061
3859.93,515.39
3860.23,513.269
3860.52,504.199
3860.82,507.278
3861.12,512.957
3861.41,510.936
3861.71,504.666
3862,511.845
3862.3,507.474
3862.6,504.553
3862.89,503.483
3863.19,507.562
3863.48,506.341
3863.78,515.67
3864.07,506.6
3864.37,512.829
3864.67,510.208
3864.96,517.988
3865.26,509.667
3865.55,507.096
3865.85,506.775
3866.14,507.905
3866.44,501.784
3866.73,511.913
3867.03,510.242
3867.32,508.922
3867.62,506.051
3867.91,513.58
3868.21,509.259
3868.51,508.539
3868.8,505.168
3869.1,507.447
3869.39,503.976
3869.69,502.756
3869.98,504.885
3870.28,510.964
3870.57,507.093
3870.87,507.773
3871.16,508.202
3871.46,507.031
3871.75,506.161
3872.05,507.29
3872.34,503.269
3872.64,508.698
3872.93,507.678
3873.23,508.857
3873.52,503.386
3873.82,508.415
3874.11,505.595
3874.41,508.574
3874.7,505.653
3875,503.832
3875.29,497.712
3875.59,506.291
3875.88,505.27
3876.18,507.699
3876.47,508.429
3876.77,508.858
3877.06,503.037
3877.36,510.316
3877.65,503.646
3877.95,503.025
3878.24,506.004
3878.53,505.933
3878.83,508.463
3879.12,503.742
3879.42,504.721
3879.71,507.801
3880.01,502.48
3880.3,506.409
3880.6,502.988
3880.89,504.518
3881.19,500.997
3881.48,500.676
3881.77,502.055
3882.07,504.335
3882.36,510.564
3882.66,505.293
3882.95,502.872
3883.25,506.502
3883.54,502.531
3883.84,504.46
3884.13,499.439
3884.42,509.569
3884.72,498.298
3885.01,506.627
3885.31,507.057
3885.6,504.936
3885.89,504.365
3886.19,503.294
3886.48,501.774
3886.78,506.403
3887.07,508.532
3887.36,498.861
3887.66,500.841
3887.95,500.42
3888.25,507.899
3888.54,504.528
3888.83,504.158
3889.13,498.637
3889.42,501.666
3889.72,508.995
3890.01,503.125
3890.3,502.504
3890.6,501.833
3890.89,502.963
3891.19,502.542
3891.48,502.321
3891.77,507.8
3892.07,499.43
3892.36,502.259
3892.65,504.938
3892.95,501.617
3893.24,500.097
3893.53,501.276
3893.83,502.355
3894.12,502.184
3894.42,507.264
3894.71,501.743
3895,506.222
3895.3,502.551
3895.59,505.481
3895.88,503.31
3896.18,505.489
3896.47,497.569
3896.76,502.498
3897.06,503.777
3897.35,499.256
3897.64,495.186
3897.94,500.065
3898.23,504.294
3898.52,496.873
3898.81,498.602
3899.11,497.432
3899.4,494.661
3899.7,496.79
3899.99,499.37
3900.28,498.649
3900.57,505.628
3900.87,499.607
3901.16,502.287
3901.45,499.866
3901.75,499.245
3902.04,504.624
3902.33,506.954
3902.62,500.683
3902.92,504.862
3903.21,499.542
3903.5,506.921
3903.8,501.85
3904.09,503.479
3904.38,502.259
3904.68,505.288
3904.97,502.017
3905.26,502.696
3905.55,503.176
3905.85,497.955
3906.14,502.134
3906.43,504.263
3906.72,503.493
3907.02,503.222
3907.31,505.701
3907.6,500.93
3907.9,508.21
3908.19,498.389
3908.48,504.568
3908.77,505.197
3909.06,497.477
3909.36,498.006
3909.65,493.035
3909.94,500.914
3910.23,498.044
3910.53,502.573
3910.82,502.302
3911.11,499.931
3911.4,504.811
3911.7,499.39
3911.99,505.219
3912.28,495.499
3912.57,499.378
3912.87,505.207
3913.16,496.236
3913.45,496.916
3913.74,500.395
3914.03,496.174
3914.33,500.953
3914.62,501.183
3914.91,497.562
3915.2,497.091
3915.49,499.57
3915.79,498.45
3916.08,502.629
3916.37,494.908
3916.66,493.487
3916.95,496.717
3917.25,500.396
3917.54,498.575
3917.83,497.405
3918.12,497.084
3918.41,490.313
3918.71,500.792
3919,501.521
3919.29,500.051
3919.58,498.73
3919.87,497.059
3920.17,491.189
3920.46,493.368
3920.75,495.547
3921.04,492.426
3921.33,497.706
3921.62,495.235
3921.92,496.714
3922.21,496.493
3922.5,499.223
3922.79,496.502
3923.08,492.631
3923.37,488.91
3923.66,491.39
3923.95,491.019
3924.25,494.198
3924.54,496.128
3924.83,493.757
3925.12,490.686
3925.41,496.315
3925.7,502.545
3926,490.624
3926.29,495.953
3926.58,494.932
3926.87,497.612
3927.16,492.591
3927.45,496.52
3927.74,492.899
3928.03,492.729
3928.33,492.358
3928.62,496.487
3928.91,494.316
3929.2,494.396
3929.49,498.125
3929.78,490.604
3930.07,492.833
3930.36,497.063
3930.65,495.492
3930.94,494.921
3931.24,495.85
3931.53,493.98
3931.82,493.959
3932.11,489.888
3932.4,494.518
3932.69,495.847
3932.98,498.926
3933.27,498.355
3933.56,497.185
3933.85,496.164
3934.14,495.743
3934.43,496.972
3934.73,496.352
3935.02,495.781
3935.31,493.56
3935.6,494.589
3935.89,493.669
3936.18,494.748
3936.47,496.427
3936.76,492.156
3937.05,489.636
3937.34,491.815
3937.63,493.144
3937.92,499.724
3938.21,488.753
3938.5,490.082
3938.79,490.611
3939.08,493.991
3939.37,496.17
3939.66,488.899
3939.95,485.928
3940.25,495.658
3940.53,487.887
3940.83,495.416
3941.12,497.395
3941.41,491.275
3941.7,492.204
3941.99,488.733
3942.28,488.112
3942.57,493.942
3942.86,487.121
3943.15,485.3
3943.44,492.58
3943.73,493.909
3944.02,492.938
3944.31,486.917
3944.6,488.347
3944.89,486.876
3945.18,494.655
3945.47,493.234
3945.76,487.364
3946.05,489.418
3946.34,491.472
3946.63,489.501
3946.92,493.231
3947.21,489.96
3947.5,483.589
3947.79,487.268
3948.08,490.298
3948.37,490.977
3948.66,481.956
3948.95,487.985
3949.23,494.265
3949.52,485.694
3949.81,482.073
3950.1,487.152
3950.39,490.632
3950.68,485.811
3950.97,490.54
3951.26,491.17
3951.55,492.049
3951.84,490.428
3952.13,488.107
3952.42,489.987
3952.71,481.516
3953,487.745
3953.29,488.374
3953.58,486.154
3953.87,491.983
3954.16,483.312
3954.45,482.741
3954.73,480.521
3955.02,491.2
3955.31,482.729
3955.6,488.058
3955.89,488.838
3956.18,489.967
3956.47,487.846
3956.76,479.976
3957.05,483.755
3957.34,480.184
3957.63,489.213
3957.92,481.793
3958.21,487.772
3958.49,484.551
3958.78,485.48
3959.07,488.66
3959.36,484.939
3959.65,490.118
3959.94,479.997
3960.23,485.527
3960.52,487.756
3960.81,487.535
3961.09,478.814
3961.38,485.944
3961.67,482.973
3961.96,482.752
3962.25,484.531
3962.54,487.061
3962.83,481.89
3963.12,487.369
3963.4,481.649
3963.69,482.628
3963.98,483.607
3964.27,473.886
3964.56,480.766
3964.85,483.195
3965.14,481.674
3965.42,486.803
3965.71,481.583
3966,485.462
3966.29,478.891
3966.58,484.22
3966.87,487
3967.16,485.329
3967.44,482.758
3967.73,478.337
3968.02,483.867
3968.31,484.196
3968.6,482.875
3968.89,476.255
3969.17,484.384
3969.46,481.663
3969.75,481.142
3970.04,484.371
3970.33,481.751
3970.62,480.68
3970.9,483.709
3971.19,480.039
3971.48,479.718
3971.77,482.197
3972.06,477.826
3972.34,485.056
3972.63,479.635
3972.92,479.714
3973.21,486.893
3973.5,481.173
3973.78,480.552
3974.07,478.181
3974.36,477.36
3974.65,479.64
3974.94,477.019
3975.22,474.598
3975.51,478.327
3975.8,480.007
3976.09,483.536
3976.38,477.165
3976.66,481.445
3976.95,480.324
3977.24,474.753
3977.52,481.932
3977.81,484.062
3978.1,483.191
3978.39,478.82
3978.68,475.899
3978.96,479.029
3979.25,477.658
3979.54,479.837
3979.83,475.166
3980.11,478.146
3980.4,485.325
3980.69,480.854
3980.98,477.133
3981.26,486.263
3981.55,477.592
3981.84,479.971
3982.13,475.5
3982.41,479.93
3982.7,478.659
3982.99,479.188
3983.28,475.617
3983.56,474.247
3983.85,474.126
3984.14,476.055
3984.42,476.685
3984.71,478.864
3985,469.193
3985.29,475.522
3985.57,476.502
3985.86,477.981
3986.15,474.76
3986.43,471.839
3986.72,473.119
3987.01,476.398
3987.29,480.027
3987.58,477.156
3987.87,472.636
3988.16,477.015
3988.44,473.994
3988.73,474.973
3989.02,474.803
3989.3,473.632
3989.59,476.511
3989.88,476.791
3990.16,474.72
3990.45,474.549
3990.74,471.728
3991.02,475.674
3991.31,471.17
3991.6,477.966
3991.89,475.162
3992.17,477.458
3992.46,474.204
3992.74,470.633
3993.03,472.562
3993.32,474.792
3993.6,482.771
3993.89,474.75
3994.18,477.079
3994.46,478.209
3994.75,474.638
3995.04,469.967
3995.32,473.696
3995.61,475.626
3995.9,474.055
3996.18,473.734
3996.47,473.314
3996.76,473.293
3997.04,469.022
3997.33,472.901
3997.61,471.081
3997.9,470.06
3998.19,471.189
3998.47,478.568
3998.76,473.198
3999.04,480.877
3999.33,467.956
3999.62,478.785
3999.9,469.065
