Raman_Shift,Intensity
cm^-^1,a.u.
850.383,399.421
850.858,401.211
851.332,409.947
851.807,412.263
852.281,413.947
852.756,422.263
853.23,417.737
853.703,417.632
854.179,430.158
854.652,421.737
855.128,424.895
855.601,432.053
856.076,437.632
856.55,436.895
857.023,443.526
857.498,449
857.971,460.684
858.447,459.737
858.92,466.263
859.393,460.263
859.868,474.368
860.341,485.526
860.816,487.737
861.289,491.842
861.762,485.211
862.237,494.158
862.71,501.105
863.183,502.158
863.658,500.895
864.131,497.947
864.604,506.053
865.079,508.789
865.552,503.632
866.024,500.158
866.499,502.684
866.972,503.737
867.445,497.105
867.917,500.053
868.392,495.632
868.865,488.263
869.337,495.316
869.812,490.368
870.285,480.474
870.757,479.211
871.23,479.421
871.704,471.947
872.177,471.842
872.649,462.684
873.122,458.895
873.594,452.579
874.068,446.053
874.541,443.526
875.013,444.263
875.485,435.105
875.96,433.211
876.432,429.737
876.904,427.105
877.376,419.211
877.849,417
878.321,422.789
878.795,419
879.267,417.947
879.739,415.842
880.211,402.053
880.683,408.579
881.155,409.737
881.629,407.842
882.101,408.158
882.573,406.684
883.045,407.526
883.517,406.474
883.989,403
884.461,402.263
884.933,408.684
885.404,406.158
885.876,396.895
886.35,405.632
886.822,406.158
887.293,408.789
887.765,407.947
888.237,405.211
888.708,409.947
889.18,406.579
889.651,404.789
890.123,406.579
890.594,403.105
891.066,407.737
891.537,404.474
892.009,405.632
892.48,408.368
892.952,414.474
893.423,415.632
893.894,412.263
894.366,413.105
894.837,411
895.308,409.947
895.78,417.737
896.251,416.789
896.722,418.789
897.193,416.579
897.664,416.474
898.135,421.105
898.607,420.158
899.078,418.158
899.549,427.526
900.02,423.316
900.489,425.737
900.96,425.105
901.431,427.842
901.902,428.263
902.373,430.474
902.843,427.842
903.314,430.579
903.785,430.895
904.256,432.684
904.725,431.316
905.195,434.053
905.666,428.684
906.137,433.947
906.608,430.895
907.078,435
907.549,433.947
908.018,439.105
908.488,439.842
908.959,441.842
909.429,439
909.9,434.789
910.368,444.053
910.839,439.842
911.309,449.211
911.78,443.947
912.25,449.21
912.718,446.158
913.189,458.789
913.659,447.316
914.129,451.316
914.598,446.053
915.068,449.632
915.538,453.526
916.008,456.158
916.477,463.842
916.947,463.842
917.417,464.263
917.887,463.211
918.355,461.316
918.825,462.895
919.295,459.737
919.763,474.895
920.233,461.842
920.703,467.526
921.171,469.211
921.641,470.368
922.111,460.684
922.579,464.263
923.048,467.632
923.518,460.895
923.986,461.105
924.456,465.842
924.925,457.105
925.393,465.105
925.863,462.579
926.333,467.737
926.8,466.684
927.27,468.895
927.737,463.421
928.207,461.842
928.676,472.368
929.144,470.368
929.613,482.053
930.081,480.579
930.55,481.632
931.018,488.158
931.487,485.316
931.957,487.211
932.424,493.526
932.893,485.526
933.361,490.053
933.83,486.263
934.297,485.632
934.766,473.316
935.234,477.632
935.703,467.947
936.17,454.579
936.639,455
937.106,448.158
937.575,445.947
938.042,435.316
938.511,430.579
938.978,431.947
939.447,417.316
939.914,419.421
940.383,421.737
940.85,412.474
941.317,408.789
941.786,412.684
942.253,409
942.721,407.316
943.188,402.053
943.657,406.895
944.124,411.105
944.591,402.684
945.059,400.368
945.526,402.474
945.995,406.368
946.461,402.158
946.928,404.263
947.396,400.789
947.863,405.316
948.329,411.105
948.798,413.421
949.264,413.947
949.733,413
950.199,419
950.666,416.263
951.134,416.263
951.6,419.737
952.067,424.158
952.533,430.895
953.001,435
953.468,435
953.934,432.579
954.402,429.421
954.868,437.105
955.334,429.947
955.802,421.421
956.269,420.053
956.735,418.263
957.201,410.263
957.669,408.474
958.135,399
958.601,405.421
959.067,386.789
959.535,389
960.001,387.211
960.467,385.947
960.932,390.684
961.398,387.947
961.866,389.211
962.332,385.105
962.798,382.053
963.263,383
963.729,387.316
964.197,379.526
964.663,378.684
965.128,377.421
965.594,381.842
966.059,377.421
966.525,378.684
966.991,375.632
967.458,374.579
967.924,376.895
968.389,377.947
968.855,373.947
969.32,366.579
969.785,379.947
970.251,366.263
970.716,370.684
971.182,371.105
971.649,370.684
972.114,370.053
972.579,374.368
973.045,370.368
973.51,367
973.975,367.211
974.44,365.421
974.905,367
975.371,366.368
975.836,370.263
976.301,367.526
976.766,360.263
977.231,365
977.696,370.684
978.161,368.053
978.626,362.789
979.091,358.684
979.556,363
980.021,365.737
980.485,360.895
980.95,358.895
981.415,362.053
981.88,356.474
982.345,362.368
982.809,361.211
983.274,361.737
983.739,354.474
984.203,358.789
984.668,352.263
985.133,359.105
985.597,355.211
986.06,350.789
986.525,344.053
986.989,352.053
987.454,354.158
987.918,350.684
988.383,349.632
988.847,348.263
989.311,356.474
989.776,354.053
990.238,356.789
990.703,348.684
991.167,350.579
991.631,354.053
992.095,354.579
992.56,357.105
993.024,348.053
993.486,353.316
993.95,359.632
994.414,353.421
994.878,363.737
995.343,363
995.805,361.316
996.269,367.526
996.733,368.158
997.197,365.211
997.661,370.789
998.123,376.263
998.587,375.842
999.051,385.421
999.514,375
999.976,384.579
1000.44,393.421
1000.9,397.421
1001.37,396.368
1001.83,401.316
1002.29,402.684
1002.76,415.105
1003.22,414.474
1003.68,425.211
1004.15,421.632
1004.61,435.316
1005.07,435.526
1005.53,438.895
1006,444.053
1006.46,447
1006.92,454.474
1007.39,461.316
1007.85,463.947
1008.31,472.053
1008.77,473.105
1009.24,475.842
1009.7,467.947
1010.16,485.211
1010.62,481.842
1011.09,475.316
1011.55,471.632
1012.01,468.789
1012.47,471
1012.94,473.632
1013.4,463
1013.86,457.737
1014.32,456.368
1014.79,450.263
1015.25,448.895
1015.71,442.263
1016.17,442.474
1016.63,437.737
1017.1,428.579
1017.56,432.263
1018.02,426.895
1018.48,428.368
1018.94,421.842
1019.41,418.684
1019.87,413
1020.33,418.368
1020.79,414.684
1021.25,409.526
1021.72,410.158
1022.18,402.158
1022.64,405.737
1023.1,406.789
1023.56,404.895
1024.02,394.579
1024.49,403
1024.95,401.421
1025.41,402.684
1025.87,396.053
1026.33,396.895
1026.79,398.474
1027.25,396.684
1027.71,396.263
1028.18,399.211
1028.64,404.368
1029.1,406.474
1029.56,407.737
1030.02,406.158
1030.48,401.421
1030.94,411
1031.4,413.421
1031.86,407.211
1032.33,412.684
1032.79,415.526
1033.25,414.684
1033.71,421.842
1034.17,421.316
1034.63,421.842
1035.09,433.737
1035.55,422.368
1036.01,428.158
1036.47,431.842
1036.93,433.526
1037.39,425.632
1037.85,420.158
1038.31,434.158
1038.77,428.895
1039.23,418.789
1039.7,420.263
1040.16,422.263
1040.62,419.842
1041.08,419.526
1041.54,419.105
1042,416.053
1042.46,410.789
1042.92,416.474
1043.38,420.158
1043.84,415.947
1044.3,417.316
1044.76,415.526
1045.22,416.368
1045.68,423.842
1046.14,431.947
1046.6,431.316
1047.06,434.158
1047.52,436.684
1047.98,439.526
1048.44,449.526
1048.9,452.79
1049.36,458.579
1049.81,463.526
1050.27,472.368
1050.73,491.105
1051.19,500.579
1051.65,515.21
1052.11,529
1052.57,541.105
1053.03,556.053
1053.49,582.053
1053.95,595.632
1054.41,613
1054.87,641.316
1055.33,665.842
1055.79,696.053
1056.24,738.895
1056.7,763.842
1057.16,789.105
1057.62,824.368
1058.08,862.579
1058.54,902.158
1059,937.211
1059.46,1000.05
1059.92,1050.37
1060.38,1112.89
1060.84,1160.16
1061.29,1219
1061.75,1262.58
1062.21,1322.26
1062.67,1384.05
1063.13,1438.26
1063.59,1512.37
1064.05,1575.32
1064.5,1654.37
1064.96,1726.05
1065.42,1778.47
1065.88,1854.68
1066.34,1900.26
1066.8,1959.95
1067.25,2015.21
1067.71,2091
1068.17,2140.37
1068.63,2202.05
1069.09,2252.26
1069.55,2303.74
1070,2352.16
1070.46,2400.16
1070.92,2455.84
1071.38,2485.74
1071.83,2530.89
1072.29,2564.79
1072.75,2601.32
1073.21,2615.63
1073.67,2650.79
1074.12,2693.63
1074.58,2702.47
1075.04,2713.74
1075.5,2721.74
1075.96,2720.58
1076.41,2751.42
1076.87,2759.11
1077.33,2755.63
1077.79,2753
1078.24,2772.16
1078.7,2749.84
1079.16,2741.84
1079.61,2699
1080.07,2699
1080.53,2654.68
1080.99,2649.42
1081.44,2601.53
1081.9,2590.89
1082.36,2490.37
1082.81,2437.74
1083.27,2449.84
1083.73,2403.32
1084.19,2365.42
1084.64,2326.68
1085.1,2259.84
1085.56,2197.11
1086.01,2167.21
1086.47,2113.53
1086.93,2070.68
1087.38,2002.89
1087.84,1964.05
1088.3,1923.63
1088.75,1860.68
1089.21,1810.58
1089.67,1759.53
1090.12,1700.68
1090.58,1651.32
1091.04,1615.32
1091.49,1575.84
1091.95,1525
1092.41,1484.58
1092.86,1451.11
1093.32,1395.53
1093.78,1358.37
1094.23,1295.63
1094.69,1261.84
1095.14,1225.32
1095.6,1172.05
1096.06,1129.63
1096.51,1070.37
1096.97,1021.11
1097.43,984.368
1097.88,935.421
1098.34,885.947
1098.79,853.211
1099.25,807.316
1099.7,774.158
1100.16,737.211
1100.61,710.684
1101.07,672.579
1101.53,650.579
1101.98,628.053
1102.44,600.158
1102.89,580.368
1103.35,571.316
1103.81,538.684
1104.26,532.579
1104.72,515.211
1105.17,497.316
1105.63,485
1106.08,476.368
1106.54,464.895
1106.99,451.842
1107.45,450.053
1107.9,435.211
1108.36,435.421
1108.81,425.316
1109.27,420.579
1109.72,412.474
1110.18,408.684
1110.63,402.579
1111.09,398.368
1111.54,400.895
1112,395.842
1112.45,395.211
1112.91,389.316
1113.36,389.737
1113.82,388.579
1114.27,394.368
1114.73,386.474
1115.18,392.158
1115.64,391.421
1116.09,389.632
1116.54,391.105
1117,396.474
1117.45,400.158
1117.91,393.526
1118.36,395.737
1118.82,398.368
1119.27,401.947
1119.73,396.789
1120.18,404.895
1120.64,404.158
1121.09,401.842
1121.54,401.211
1122,402.053
1122.45,391.632
1122.91,396.895
1123.36,398.053
1123.81,392.474
1124.27,391.21
1124.72,389.526
1125.18,389.632
1125.63,389.842
1126.08,385
1126.54,381.842
1126.99,387.211
1127.44,379.842
1127.9,381.947
1128.35,379.947
1128.8,371.842
1129.26,374.158
1129.71,370.895
1130.17,372.474
1130.62,371.421
1131.07,371.526
1131.53,363.842
1131.98,363.526
1132.43,363.211
1132.89,360.684
1133.34,358.158
1133.79,359.842
1134.25,351.947
1134.7,351.842
1135.15,346.474
1135.61,348.053
1136.06,346.263
1136.51,340.263
1136.96,340.158
1137.42,336.474
1137.87,342.368
1138.32,334.263
1138.78,340.789
1139.23,332.579
1139.68,331.105
1140.13,331.947
1140.59,326.053
1141.04,325.105
1141.49,329.842
1141.95,329
1142.4,327.632
1142.85,327
1143.3,322.158
1143.76,321.632
1144.21,324.368
1144.66,321.632
1145.11,330.368
1145.57,324.053
1146.02,322.895
1146.47,328.895
1146.92,329.842
1147.38,331.526
1147.83,333.211
1148.28,335.316
1148.73,337.211
1149.18,339.211
1149.64,331.316
1150.09,337.947
1150.54,336.474
1150.99,331.421
1151.44,335.737
1151.89,340.684
1152.35,333
1152.8,334.053
1153.25,334.158
1153.7,331.105
1154.16,333.211
1154.61,322.368
1155.06,332.789
1155.51,332.368
1155.96,332.684
1156.41,324.684
1156.86,328.579
1157.32,325.105
1157.77,327.737
1158.22,324.263
1158.67,328.053
1159.12,327.947
1159.57,329.632
1160.02,330.368
1160.47,328.789
1160.93,325
1161.38,327.737
1161.83,325.842
1162.28,325
1162.73,314.474
1163.18,321.105
1163.63,321.105
1164.08,320.684
1164.53,316.474
1164.99,318.474
1165.44,316.474
1165.89,315.526
1166.34,314.684
1166.79,318.895
1167.24,310.158
1167.69,318.263
1168.14,310.895
1168.59,311
1169.04,311
1169.49,311.211
1169.94,305.105
1170.39,307
1170.84,304.684
1171.29,313.737
1171.74,310.263
1172.2,305.421
1172.64,308.053
1173.1,306.895
1173.54,308.053
1174,299.211
1174.45,306.368
1174.9,304.158
1175.35,305.316
1175.8,297.842
1176.25,305.632
1176.7,306.684
1177.15,300.895
1177.6,306.474
1178.05,299.632
1178.5,298.158
1178.95,302.474
1179.39,300.368
1179.85,298.474
1180.29,301.316
1180.75,293.632
1181.19,300.474
1181.64,296.684
1182.09,300.789
1182.54,299.947
1182.99,299.632
1183.44,295
1183.89,297.211
1184.34,298.368
1184.79,292.895
1185.24,295.842
1185.69,299.105
1186.14,301.737
1186.59,301.211
1187.04,297.421
1187.49,286.474
1187.94,298.368
1188.38,292.263
1188.83,292.474
1189.28,292.368
1189.73,297.947
1190.18,298.158
1190.63,301.421
1191.08,294.158
1191.53,294.263
1191.98,294.579
1192.42,289.947
1192.87,291
1193.32,299
1193.77,296.263
1194.22,295.947
1194.67,295.316
1195.12,298.474
1195.57,297.211
1196.02,300.895
1196.46,300.474
1196.91,307.947
1197.36,296.474
1197.81,298.579
1198.26,309.211
1198.7,303.211
1199.15,313.632
1199.6,305.737
1200.05,300.474
1200.5,307.421
1200.95,308.579
1201.4,307.842
1201.84,312.263
1202.29,308.895
1202.74,314.368
1203.19,309.737
1203.63,311.316
1204.08,315.421
1204.53,311.632
1204.98,321.632
1205.43,308.895
1205.87,309.211
1206.32,307.316
1206.77,306.474
1207.22,312.158
1207.66,312.579
1208.11,305.947
1208.56,303.316
1209.01,298.053
1209.45,303.632
1209.9,297.421
1210.35,299.105
1210.8,298.474
1211.25,302.053
1211.69,295.842
1212.14,296.895
1212.59,288.579
1213.03,296.474
1213.48,289.105
1213.93,289.842
1214.38,281.21
1214.82,281.947
1215.27,284.474
1215.72,284.158
1216.16,285.105
1216.61,278.895
1217.06,285.632
1217.5,283
1217.95,287.421
1218.4,292.158
1218.84,283
1219.29,285.947
1219.74,282.684
1220.19,284.053
1220.63,288.474
1221.08,286.368
1221.53,295.526
1221.97,290.368
1222.42,285.421
1222.86,296.474
1223.31,287.105
1223.76,293.421
1224.2,299.105
1224.65,291.842
1225.1,292.474
1225.54,294.474
1225.99,293.526
1226.44,292.895
1226.88,292.368
1227.33,296.263
1227.77,298.158
1228.22,305.316
1228.67,296.474
1229.11,300.053
1229.56,301.526
1230,295.947
1230.45,299.947
1230.9,300.263
1231.34,297.105
1231.79,293.421
1232.23,297.211
1232.68,298.368
1233.12,304.895
1233.57,301
1234.02,304.895
1234.46,306.789
1234.91,305.632
1235.35,309.211
1235.8,305.21
1236.24,312.368
1236.69,307.316
1237.13,307.316
1237.58,305.211
1238.02,315.316
1238.47,317
1238.92,315.211
1239.36,310.789
1239.81,318.79
1240.25,321.526
1240.7,319.316
1241.14,321.632
1241.59,312.474
1242.03,321.316
1242.48,324.053
1242.92,322.263
1243.37,322.684
1243.81,330.263
1244.26,327.421
1244.7,331.842
1245.15,328.789
1245.59,324.368
1246.04,329.842
1246.48,332.158
1246.92,328.895
1247.37,329.105
1247.82,336.789
1248.26,333.105
1248.7,332.368
1249.15,336.263
1249.59,339.842
